Tue Oct 04 11:04:00 2016

Number of Points = 2691
Depth (nm)	Load (µN)	Time (s)	Depth (V)	Load (V)
5.921969	1.237715	0.000000	-0.004587	0.511877

5.842203	1.200048	0.005005	-0.004572	0.511671
5.758146	1.277151	0.010010	-0.004555	0.511805
5.811453	1.316434	0.015014	-0.004567	0.511995
5.876198	1.288029	0.020019	-0.004582	0.511995
5.883900	1.189102	0.025024	-0.004584	0.511713
5.849321	1.188332	0.030029	-0.004578	0.511673
5.844693	1.165376	0.035034	-0.004578	0.511604
5.833653	1.090204	0.040038	-0.004577	0.511370
5.785549	1.037264	0.045043	-0.004568	0.511157
5.660100	1.044564	0.050048	-0.004542	0.511030
5.801920	0.888664	0.055053	-0.004573	0.510741
5.778321	0.788510	0.060058	-0.004569	0.510415
5.634895	0.740429	0.065062	-0.004540	0.510098
5.721512	0.573029	0.070067	-0.004559	0.509706
5.692066	0.449278	0.075072	-0.004554	0.509301
5.653466	0.335982	0.080077	-0.004547	0.508916
5.622357	0.178759	0.085082	-0.004541	0.508408
5.594826	0.037366	0.090086	-0.004536	0.507951
5.455732	-0.077460	0.095091	-0.004508	0.507435
5.346332	-0.206897	0.100096	-0.004486	0.506911
5.351155	-0.365297	0.105101	-0.004488	0.506442
5.300019	-0.537633	0.110106	-0.004478	0.505860
5.213354	-0.681565	0.115110	-0.004461	0.505319
5.148268	-0.840048	0.120115	-0.004448	0.504760
5.122791	-1.029243	0.125120	-0.004443	0.504156
4.931052	-1.134338	0.130125	-0.004404	0.503600
4.858547	-1.299194	0.135130	-0.004390	0.503011
4.640858	-1.393945	0.140134	-0.004345	0.502452
4.427742	-1.474344	0.145139	-0.004301	0.501943
4.181580	-1.521308	0.150144	-0.004250	0.501495
4.081707	-1.611275	0.155149	-0.004230	0.501098
3.914933	-1.695101	0.160154	-0.004196	0.500636
3.641445	-1.699596	0.165158	-0.004140	0.500283
3.316842	-1.652287	0.170163	-0.004072	0.500024
3.062075	-1.650029	0.175168	-0.004020	0.499715
3.040867	-1.677237	0.180173	-0.004016	0.499610
2.860459	-1.673399	0.185178	-0.003979	0.499399
2.705667	-1.666159	0.190182	-0.003948	0.499231
2.515083	-1.640652	0.195187	-0.003908	0.499075
2.472824	-1.626195	0.200192	-0.003901	0.499072
2.284488	-1.645317	0.205197	-0.003862	0.498780
2.313363	-1.658246	0.210202	-0.003869	0.498782
2.231754	-1.701817	0.215206	-0.003853	0.498550
2.095959	-1.679436	0.220211	-0.003825	0.498453
1.888200	-1.634876	0.225216	-0.003782	0.498333
1.859272	-1.683815	0.230221	-0.003777	0.498151
1.835529	-1.675823	0.235226	-0.003773	0.498152
1.587897	-1.676275	0.240230	-0.003722	0.497842
1.504552	-1.644190	0.245235	-0.003706	0.497841
1.593792	-1.723793	0.250240	-0.003725	0.497714
1.331557	-1.670021	0.255245	-0.003671	0.497553
1.187935	-1.614182	0.260250	-0.003642	0.497549
1.116102	-1.687019	0.265254	-0.003628	0.497238
1.112998	-1.695413	0.270259	-0.003628	0.497214
0.984657	-1.690516	0.275264	-0.003602	0.497072
0.799571	-1.671385	0.280269	-0.003564	0.496902
0.736933	-1.647927	0.285274	-0.003552	0.496901
0.532658	-1.661999	0.290278	-0.003510	0.496603
0.646929	-1.717771	0.295283	-0.003535	0.496582
0.425399	-1.692325	0.300288	-0.003489	0.496385
0.357919	-1.700092	0.305293	-0.003476	0.496280
0.310349	-1.702800	0.310298	-0.003467	0.496217
0.012508	-1.666759	0.315302	-0.003406	0.495956
0.007903	-1.666399	0.320307	-0.003406	0.495957
0.008654	-1.690228	0.325312	-0.003407	0.495890
-0.199513	-1.682926	0.330317	-0.003364	0.495653
-0.256649	-1.661750	0.335322	-0.003353	0.495652
-0.487372	-1.651500	0.340326	-0.003305	0.495395
-0.514668	-1.660827	0.345331	-0.003301	0.495337
-0.481000	-1.676044	0.350336	-0.003309	0.495339
-0.666892	-1.690647	0.355341	-0.003270	0.495062
-0.743111	-1.669361	0.360346	-0.003255	0.495037
-0.880998	-1.666221	0.365350	-0.003227	0.494876
-1.010511	-1.669221	0.370355	-0.003201	0.494707
-0.959526	-1.694784	0.375360	-0.003213	0.494699
-1.095100	-1.740127	0.380365	-0.003185	0.494390
-1.136198	-1.742308	0.385370	-0.003178	0.494337
-1.457975	-1.694685	0.390374	-0.003111	0.494080
-1.518007	-1.672720	0.395379	-0.003099	0.494077
-1.547290	-1.683633	0.400384	-0.003094	0.494012
-1.823467	-1.646171	0.405389	-0.003037	0.493781
-1.826619	-1.645483	0.410394	-0.003037	0.493785
-1.836864	-1.681326	0.415398	-0.003036	0.493666
-2.038191	-1.669232	0.420403	-0.002995	0.493452
-2.132184	-1.633108	0.425408	-0.002976	0.493450
-2.114154	-1.679359	0.430413	-0.002981	0.493335
-2.385732	-1.632450	0.435418	-0.002925	0.493139
-2.428971	-1.616416	0.440422	-0.002916	0.493140
-2.474727	-1.655626	0.445427	-0.002908	0.492965
-2.625134	-1.639595	0.450432	-0.002877	0.492828
-2.686236	-1.619397	0.455437	-0.002865	0.492818
-2.781450	-1.647323	0.460442	-0.002846	0.492615
-2.893757	-1.619801	0.465446	-0.002824	0.492563
-2.840846	-1.677427	0.470451	-0.002836	0.492456
-3.099910	-1.645432	0.475456	-0.002782	0.492230
-3.239370	-1.590198	0.480461	-0.002754	0.492229
-3.354638	-1.615894	0.485466	-0.002731	0.492007
-3.309085	-1.667206	0.490470	-0.002741	0.491911
-3.433470	-1.647885	0.495475	-0.002716	0.491817
-3.627643	-1.642676	0.500480	-0.002676	0.491590
-3.568925	-1.668023	0.505485	-0.002689	0.491592
-3.955523	-1.606831	0.510490	-0.002609	0.491292
-4.019860	-1.582507	0.515494	-0.002597	0.491292
-3.905247	-1.631304	0.520499	-0.002622	0.491292
-4.050363	-1.644481	0.525504	-0.002592	0.491070
-4.106321	-1.655096	0.530509	-0.002581	0.490971
-4.255655	-1.642769	0.535514	-0.002551	0.490823
-4.433570	-1.622198	0.540518	-0.002514	0.490664
-4.348980	-1.681178	0.545523	-0.002533	0.490594
-4.611902	-1.651779	0.550528	-0.002479	0.490354
-4.687872	-1.621720	0.555533	-0.002464	0.490356
-4.820475	-1.649261	0.560538	-0.002437	0.490104
-4.877545	-1.646023	0.565542	-0.002426	0.490047
-4.886634	-1.681105	0.570547	-0.002425	0.489931
-5.147460	-1.645698	0.575552	-0.002371	0.489712
-5.159013	-1.641250	0.580557	-0.002370	0.489717
-5.355603	-1.644504	0.585562	-0.002329	0.489458
-5.358256	-1.663947	0.590566	-0.002330	0.489400
-5.472018	-1.655191	0.595571	-0.002307	0.489286
-5.711973	-1.621582	0.600576	-0.002257	0.489088
-5.702452	-1.628193	0.605581	-0.002260	0.489086
-5.682065	-1.680448	0.610586	-0.002265	0.488953
-5.811082	-1.681901	0.615590	-0.002239	0.488788
-5.929842	-1.692723	0.620595	-0.002215	0.488606
-6.086478	-1.676078	0.625600	-0.002183	0.488462
-6.095448	-1.705014	0.630605	-0.002182	0.488365
-6.429285	-1.634932	0.635610	-0.002113	0.488160
-6.332604	-1.676184	0.640614	-0.002134	0.488161
-6.428767	-1.712454	0.645619	-0.002115	0.487928
-6.566422	-1.684309	0.650624	-0.002087	0.487844
-6.691926	-1.697363	0.655629	-0.002062	0.487646
-6.669878	-1.738627	0.660634	-0.002067	0.487551
-6.885127	-1.704750	0.665638	-0.002023	0.487384
-6.997488	-1.712724	0.670643	-0.002000	0.487219
-7.159893	-1.647802	0.675648	-0.001967	0.487220
-7.270777	-1.653885	0.680653	-0.001945	0.487063
-7.434088	-1.639889	0.685658	-0.001912	0.486901
-7.399110	-1.654952	0.690662	-0.001920	0.486905
-7.430203	-1.696988	0.695667	-0.001914	0.486737
-7.660194	-1.652295	0.700672	-0.001867	0.486586
-7.624369	-1.673796	0.705677	-0.001875	0.486571
-7.893399	-1.654822	0.710682	-0.001820	0.486287
-7.886907	-1.660111	0.715686	-0.001822	0.486285
-7.986034	-1.672440	0.720691	-0.001802	0.486123
-8.267635	-1.614640	0.725696	-0.001744	0.485946
-8.216793	-1.635261	0.730701	-0.001756	0.485952
-8.353987	-1.594947	0.735706	-0.001728	0.485908
-8.547031	-1.607361	0.740710	-0.001688	0.485623
-8.502622	-1.625206	0.745715	-0.001699	0.485630
-8.532708	-1.639916	0.750720	-0.001693	0.485551
-8.772517	-1.623051	0.755725	-0.001644	0.485298
-8.616337	-1.701688	0.760730	-0.001678	0.485258
-9.051953	-1.612825	0.765734	-0.001587	0.484978
-8.954973	-1.652202	0.770739	-0.001608	0.484985
-9.208410	-1.579107	0.775744	-0.001556	0.484893
-9.387732	-1.590017	0.780749	-0.001519	0.484631
-9.366466	-1.601531	0.785754	-0.001525	0.484628
-9.425025	-1.579010	0.790758	-0.001513	0.484629
-9.609218	-1.572953	0.795763	-0.001476	0.484414
-9.660492	-1.589877	0.800768	-0.001466	0.484299
-9.690813	-1.579026	0.805773	-0.001460	0.484300
-9.877850	-1.589657	0.810778	-0.001422	0.484028
-9.841783	-1.622759	0.815782	-0.001431	0.483976
-9.876565	-1.644192	0.820787	-0.001424	0.483868
-10.230785	-1.562110	0.825792	-0.001351	0.483673
-10.160209	-1.592599	0.830797	-0.001367	0.483674
-10.356583	-1.609997	0.835802	-0.001326	0.483368
-10.280892	-1.649542	0.840806	-0.001343	0.483347
-10.535343	-1.616504	0.845811	-0.001291	0.483125
-10.588916	-1.624006	0.850816	-0.001280	0.483037
-10.764132	-1.564159	0.855821	-0.001244	0.483005
-10.977676	-1.567180	0.860826	-0.001200	0.482721
-10.999888	-1.559795	0.865830	-0.001197	0.482722
-11.020511	-1.553099	0.870835	-0.001193	0.482722
-11.248809	-1.520663	0.875840	-0.001146	0.482533
-11.204205	-1.561302	0.880845	-0.001157	0.482468
-11.232460	-1.553085	0.885850	-0.001152	0.482463
-11.593787	-1.509588	0.890854	-0.001077	0.482134
-11.586590	-1.515075	0.895859	-0.001079	0.482132
-11.681820	-1.477641	0.900864	-0.001060	0.482133
-11.734554	-1.513548	0.905869	-0.001050	0.481955
-11.867790	-1.502996	0.910874	-0.001023	0.481820
-12.013817	-1.444857	0.915878	-0.000993	0.481820
-12.056733	-1.483882	0.920883	-0.000985	0.481645
-12.190245	-1.478494	0.925888	-0.000958	0.481493
-12.066445	-1.557627	0.930893	-0.000985	0.481409
-12.515709	-1.441880	0.935898	-0.000892	0.481195
-12.473757	-1.460128	0.940902	-0.000901	0.481198
-12.462669	-1.465933	0.945907	-0.000905	0.481200
-12.731832	-1.458892	0.950912	-0.000849	0.480875
-12.683380	-1.483745	0.955917	-0.000860	0.480865
-12.787136	-1.491803	0.960922	-0.000839	0.480709
-13.169765	-1.386270	0.965926	-0.000760	0.480549
-12.893189	-1.500506	0.970931	-0.000819	0.480553
-13.014312	-1.513860	0.975936	-0.000795	0.480357
-13.327627	-1.425883	0.980941	-0.000730	0.480233
-13.368653	-1.412109	0.985946	-0.000722	0.480229
-13.459422	-1.460793	0.990950	-0.000704	0.479959
-13.333909	-1.521522	0.995955	-0.000731	0.479936
-13.692276	-1.414363	1.000960	-0.000657	0.479814

-13.492910	-1.463156	1.010957	-0.000701	0.479932
-13.609399	-1.414219	1.020954	-0.000678	0.479948
-13.319272	-1.448048	1.030950	-0.000741	0.480234
-13.184910	-1.424381	1.040947	-0.000772	0.480499
-12.946723	-1.460439	1.050944	-0.000824	0.480710
-12.829146	-1.424927	1.060941	-0.000850	0.480991
-12.610394	-1.423873	1.070938	-0.000898	0.481294
-12.376011	-1.459627	1.080934	-0.000950	0.481500
-12.221770	-1.416590	1.090931	-0.000984	0.481852
-11.837117	-1.490592	1.100928	-0.001067	0.482133
-11.719345	-1.482339	1.110925	-0.001094	0.482326
-11.605055	-1.484013	1.120922	-0.001120	0.482483
-11.331282	-1.524530	1.130918	-0.001179	0.482725
-11.187226	-1.505547	1.140915	-0.001211	0.482986
-10.930954	-1.527482	1.150912	-0.001267	0.483264
-10.820562	-1.496776	1.160909	-0.001293	0.483519
-10.622259	-1.482951	1.170906	-0.001336	0.483835
-10.364628	-1.513957	1.180902	-0.001392	0.484085
-10.243551	-1.459538	1.190899	-0.001420	0.484428
-10.050787	-1.441540	1.200896	-0.001462	0.484749
-9.783506	-1.449439	1.210893	-0.001521	0.485085
-9.628870	-1.427032	1.220890	-0.001555	0.485370
-9.429480	-1.420020	1.230886	-0.001599	0.485664
-9.195022	-1.404903	1.240883	-0.001650	0.486030
-9.063777	-1.364226	1.250880	-0.001680	0.486342
-8.839964	-1.346464	1.260877	-0.001729	0.486701
-8.564070	-1.362384	1.270874	-0.001789	0.487021
-8.414510	-1.339223	1.280870	-0.001822	0.487301
-8.155129	-1.362507	1.290867	-0.001879	0.487576
-7.970556	-1.352224	1.300864	-0.001920	0.487860
-7.733999	-1.357997	1.310861	-0.001971	0.488161
-7.581000	-1.341329	1.320858	-0.002006	0.488423
-7.356911	-1.356820	1.330854	-0.002055	0.488677
-7.200566	-1.331080	1.340851	-0.002090	0.488972
-6.957847	-1.350605	1.350848	-0.002143	0.489237
-6.886948	-1.280777	1.360845	-0.002160	0.489560
-6.566095	-1.303393	1.370842	-0.002229	0.489916
-6.417675	-1.284068	1.380838	-0.002262	0.490180
-6.276779	-1.232056	1.390835	-0.002294	0.490537
-5.962171	-1.251791	1.400832	-0.002362	0.490893
-5.758284	-1.279752	1.410829	-0.002407	0.491080
-5.657242	-1.200978	1.420826	-0.002430	0.491469
-5.398652	-1.207610	1.430822	-0.002486	0.491793
-5.257247	-1.160972	1.440819	-0.002518	0.492133
-4.993099	-1.152902	1.450816	-0.002576	0.492509
-4.760041	-1.171755	1.460813	-0.002627	0.492762
-4.606956	-1.151723	1.470810	-0.002661	0.493033
-4.425660	-1.141875	1.480806	-0.002701	0.493308
-4.213977	-1.114526	1.490803	-0.002748	0.493677
-3.990203	-1.109309	1.500800	-0.002797	0.493991
-3.793749	-1.100069	1.510797	-0.002840	0.494284
-3.578981	-1.092584	1.520794	-0.002887	0.494594
-3.394188	-1.057095	1.530790	-0.002928	0.494952
-3.145968	-1.068675	1.540787	-0.002982	0.495245
-3.002226	-1.037574	1.550784	-0.003014	0.495537
-2.845637	-1.001693	1.560781	-0.003049	0.495860
-2.726474	-0.927162	1.570778	-0.003076	0.496256
-2.414507	-0.937236	1.580774	-0.003144	0.496634
-2.236537	-0.894505	1.590771	-0.003183	0.497005
-2.032906	-0.876163	1.600768	-0.003228	0.497332
-1.829831	-0.846474	1.610765	-0.003273	0.497694
-1.483424	-0.905188	1.620762	-0.003348	0.497965
-1.426399	-0.841337	1.630758	-0.003362	0.498246
-1.231847	-0.795773	1.640755	-0.003404	0.498646
-1.089837	-0.751118	1.650752	-0.003436	0.498975
-0.794118	-0.754285	1.660749	-0.003501	0.499352
-0.662363	-0.701667	1.670746	-0.003530	0.499693
-0.464063	-0.651096	1.680742	-0.003574	0.500111
-0.231233	-0.628224	1.690739	-0.003625	0.500488
-0.143725	-0.556130	1.700736	-0.003645	0.500832
0.000000	-0.453906	1.710733	-0.003678	0.501339
0.214747	-0.393504	1.720730	-0.003725	0.501807
0.509600	-0.357525	1.730726	-0.003789	0.502301
0.679224	-0.299847	1.740723	-0.003826	0.502703
0.811403	-0.213031	1.750720	-0.003856	0.503147
1.041191	-0.157189	1.760717	-0.003906	0.503618
1.205286	-0.067198	1.770714	-0.003943	0.504110
1.344612	0.038319	1.780710	-0.003974	0.504619
1.659336	0.091277	1.790707	-0.004042	0.505186
1.773865	0.185829	1.800704	-0.004069	0.505629
1.918014	0.306606	1.810701	-0.004101	0.506189
2.113333	0.410079	1.820698	-0.004144	0.506759
2.129366	0.619624	1.830694	-0.004149	0.507427
2.280430	0.799684	1.840691	-0.004183	0.508173
2.479922	0.979134	1.850688	-0.004227	0.508976
2.570541	1.200088	1.860685	-0.004248	0.509768
2.731760	1.427890	1.870682	-0.004284	0.510667
2.796633	1.708242	1.880678	-0.004300	0.511603
2.980514	1.974522	1.890675	-0.004340	0.512643
3.092766	2.274647	1.900672	-0.004366	0.513693
3.141178	2.995739	1.910669	-0.004378	0.515921

3.148687	2.690040	1.915674	-0.004381	0.515023
3.199622	2.592474	1.920678	-0.004393	0.514799
3.178029	2.568464	1.925683	-0.004389	0.514706
3.075445	2.580231	1.930688	-0.004368	0.514621
3.163426	2.535914	1.935693	-0.004388	0.514603
3.205075	2.560773	1.940698	-0.004398	0.514734
3.166215	2.560939	1.945702	-0.004390	0.514692
3.133425	2.556436	1.950707	-0.004385	0.514644
3.209358	2.552187	1.955712	-0.004402	0.514731
3.150312	2.551939	1.960717	-0.004390	0.514663
3.163570	2.578464	1.965722	-0.004394	0.514765
3.081533	2.560524	1.970726	-0.004378	0.514616
3.164085	2.603049	1.975731	-0.004396	0.514850
3.221371	2.730383	1.980736	-0.004409	0.515307
3.138072	2.962037	1.985741	-0.004393	0.515903
3.272046	3.104903	1.990746	-0.004422	0.516499
3.391857	3.305317	1.995750	-0.004448	0.517248
3.217548	3.546431	2.000755	-0.004412	0.517758
3.391534	3.704308	2.005760	-0.004450	0.518445
3.469871	3.906736	2.010765	-0.004467	0.519147
3.617836	4.099142	2.015770	-0.004500	0.519903
3.636920	4.314972	2.020774	-0.004505	0.520571
3.631297	4.531483	2.025779	-0.004504	0.521210
3.632484	4.732796	2.030784	-0.004506	0.521812
3.667395	4.935253	2.035789	-0.004514	0.522457
3.640884	5.131043	2.040794	-0.004510	0.523007
3.663370	5.331855	2.045798	-0.004515	0.523631
3.631849	5.536006	2.050803	-0.004510	0.524199
3.707436	5.729741	2.055808	-0.004527	0.524864
3.685062	5.948702	2.060813	-0.004523	0.525485
3.673005	6.136644	2.065818	-0.004521	0.526027
3.729620	6.324661	2.070822	-0.004534	0.526650
3.878628	6.509001	2.075827	-0.004567	0.527373
4.009447	6.699593	2.080832	-0.004595	0.528092
3.960140	6.940032	2.085837	-0.004586	0.528739
3.930560	7.157597	2.090842	-0.004581	0.529343
4.023430	7.315768	2.095846	-0.004601	0.529919
4.126435	7.515709	2.100851	-0.004624	0.530628
4.089171	7.746780	2.105856	-0.004617	0.531259
4.047836	7.945075	2.110861	-0.004610	0.531790
4.163031	8.132756	2.115866	-0.004635	0.532476
4.208676	8.314639	2.120870	-0.004645	0.533061
4.230458	8.521954	2.125875	-0.004651	0.533691
4.288395	8.721315	2.130880	-0.004664	0.534340
4.194296	8.972752	2.135885	-0.004645	0.534958
4.234943	9.141971	2.140890	-0.004655	0.535499
4.243280	9.334022	2.145894	-0.004658	0.536066
4.376784	9.513529	2.150899	-0.004687	0.536744
4.402194	9.739440	2.155904	-0.004693	0.537427
4.498027	9.920454	2.160909	-0.004714	0.538064
4.454429	10.152490	2.165914	-0.004706	0.538682
4.450632	10.343136	2.170918	-0.004707	0.539228
4.519031	10.530747	2.175923	-0.004722	0.539849
4.421214	10.770320	2.180928	-0.004702	0.540423
4.421296	10.944996	2.185933	-0.004703	0.540926
4.450600	11.152925	2.190938	-0.004711	0.541557
4.434291	11.358214	2.195942	-0.004708	0.542127
4.415371	11.546632	2.200947	-0.004705	0.542645
4.497198	11.724112	2.205952	-0.004724	0.543249
4.621198	11.916948	2.210957	-0.004751	0.543945
4.541394	12.155280	2.215962	-0.004735	0.544532
4.650292	12.341822	2.220966	-0.004759	0.545191
4.633477	12.542593	2.225971	-0.004756	0.545744
4.536410	12.766651	2.230976	-0.004737	0.546269
4.670016	12.933491	2.235981	-0.004766	0.546899
4.607175	13.168349	2.240986	-0.004754	0.547493
4.742963	13.320393	2.245990	-0.004783	0.548082
4.732336	13.554314	2.250995	-0.004782	0.548732
4.688099	13.744441	2.256000	-0.004774	0.549220
4.910116	13.910930	2.261005	-0.004822	0.549947
4.944687	14.157591	2.266010	-0.004830	0.550682
4.915181	14.352617	2.271014	-0.004825	0.551199
4.878408	14.563409	2.276019	-0.004818	0.551751
4.920405	14.750629	2.281024	-0.004828	0.552326
4.932139	14.936438	2.286029	-0.004831	0.552863
4.814330	15.181986	2.291034	-0.004808	0.553417
4.868407	15.347777	2.296038	-0.004820	0.553946
5.028527	15.513022	2.301043	-0.004855	0.554592
4.883826	15.777157	2.306048	-0.004825	0.555166
4.956689	15.960771	2.311053	-0.004842	0.555763
4.928339	16.152841	2.316058	-0.004837	0.556268
4.934197	16.369753	2.321062	-0.004839	0.556880
5.028460	16.541402	2.326067	-0.004860	0.557467
5.072890	16.736638	2.331072	-0.004870	0.558062
5.120799	16.942825	2.336077	-0.004881	0.558690
5.057457	17.170923	2.341082	-0.004869	0.559252
5.105914	17.349493	2.346086	-0.004880	0.559803
5.157333	17.551231	2.351091	-0.004892	0.560421
5.035734	17.793499	2.356096	-0.004868	0.560955
5.213530	17.921436	2.361101	-0.004906	0.561511
5.151897	18.163481	2.366106	-0.004894	0.562111
5.180976	18.349182	2.371110	-0.004901	0.562657
5.311005	18.531540	2.376115	-0.004930	0.563307
5.252651	18.760348	2.381120	-0.004918	0.563872
5.277793	18.956329	2.386125	-0.004925	0.564440
5.276481	19.173977	2.391130	-0.004925	0.565038
5.273223	19.362397	2.396134	-0.004926	0.565552
5.223472	19.564529	2.401139	-0.004916	0.566052
5.237972	19.766497	2.406144	-0.004920	0.566623
5.291303	19.957398	2.411149	-0.004933	0.567206
5.316570	20.165423	2.416154	-0.004939	0.567804
5.493512	20.320714	2.421158	-0.004977	0.568426
5.481848	20.556022	2.426163	-0.004976	0.569056
5.379505	20.788286	2.431168	-0.004955	0.569576
5.398315	20.968859	2.436173	-0.004960	0.570090
5.426212	21.168972	2.441178	-0.004967	0.570666
5.392435	21.374537	2.446182	-0.004961	0.571188
5.559344	21.528954	2.451187	-0.004997	0.571794
5.576163	21.754963	2.456192	-0.005002	0.572426
5.648957	21.935412	2.461197	-0.005018	0.572997
5.703128	22.151589	2.466202	-0.005030	0.573642
5.654177	22.374250	2.471206	-0.005021	0.574191
5.695663	22.569981	2.476211	-0.005031	0.574766
5.645940	22.769624	2.481216	-0.005022	0.575251
5.729796	22.958408	2.486221	-0.005040	0.575854
5.657354	23.183452	2.491226	-0.005026	0.576381
5.622574	23.380226	2.496230	-0.005020	0.576873
5.776818	23.530914	2.501235	-0.005053	0.577449
5.660913	23.792894	2.506240	-0.005030	0.578026
5.679631	23.969701	2.511245	-0.005035	0.578522
5.729162	24.167218	2.516250	-0.005046	0.579107
5.729266	24.373921	2.521254	-0.005047	0.579662
5.812013	24.556669	2.526259	-0.005066	0.580242
5.839714	24.756060	2.531264	-0.005073	0.580806
5.904977	24.959093	2.536269	-0.005087	0.581420
5.785643	25.193419	2.541274	-0.005063	0.581916
5.943595	25.349604	2.546278	-0.005097	0.582505
5.946380	25.561220	2.551283	-0.005099	0.583073
5.908935	25.778220	2.556288	-0.005092	0.583610
5.964065	25.967146	2.561293	-0.005105	0.584173
5.887578	26.197626	2.566298	-0.005090	0.584703
5.894097	26.371667	2.571302	-0.005092	0.585173
5.952253	26.564126	2.576307	-0.005105	0.585747
6.038329	26.752995	2.581312	-0.005125	0.586341
5.875825	27.014148	2.586317	-0.005091	0.586856
5.973096	27.161522	2.591322	-0.005113	0.587353
6.028153	27.359701	2.596326	-0.005125	0.587936
6.084725	27.565282	2.601331	-0.005138	0.588540
6.016104	27.789396	2.606336	-0.005125	0.589058
6.008824	27.983286	2.611341	-0.005124	0.589561
6.069822	28.179331	2.616346	-0.005138	0.590143
6.174615	28.342409	2.621350	-0.005161	0.590686
6.007874	28.601280	2.626355	-0.005127	0.591187
5.965478	28.806643	2.631360	-0.005119	0.591682
6.117954	28.948924	2.636365	-0.005153	0.592219
6.019174	29.201053	2.641370	-0.005133	0.592774
6.129303	29.342771	2.646374	-0.005157	0.593265
6.150541	29.579041	2.651379	-0.005162	0.593905
6.158224	29.776552	2.656384	-0.005165	0.594430
6.248378	29.964982	2.661389	-0.005185	0.595019
6.284074	30.174428	2.666394	-0.005194	0.595603
6.094185	30.427489	2.671398	-0.005155	0.596061
6.141050	30.567335	2.676403	-0.005166	0.596477
6.192548	30.781134	2.681408	-0.005177	0.597088
6.163917	30.994519	2.686413	-0.005172	0.597613
6.209116	31.170223	2.691418	-0.005183	0.598118
6.150381	31.393167	2.696422	-0.005172	0.598634
6.177103	31.573239	2.701427	-0.005178	0.599131
6.107076	31.788521	2.706432	-0.005165	0.599615
6.191770	31.986437	2.711437	-0.005183	0.600217
6.201136	32.187132	2.716442	-0.005186	0.600746
6.162853	32.386152	2.721446	-0.005179	0.601221
6.181004	32.579613	2.726451	-0.005184	0.601740
6.195771	32.778741	2.731456	-0.005188	0.602270
6.238879	32.980557	2.736461	-0.005198	0.602836
6.414972	33.146940	2.741466	-0.005237	0.603449
6.376827	33.383872	2.746470	-0.005230	0.604019
6.373410	33.587527	2.751475	-0.005230	0.604539
6.384900	33.782261	2.756480	-0.005233	0.605052
6.426149	33.984942	2.761485	-0.005243	0.605615
6.380297	34.201928	2.766490	-0.005234	0.606124
6.412151	34.379915	2.771494	-0.005242	0.606614
6.450808	34.577660	2.776499	-0.005251	0.607161
6.428082	34.792243	2.781504	-0.005248	0.607686
6.406125	35.004670	2.786509	-0.005244	0.608206
6.439672	35.176257	2.791514	-0.005252	0.608680
6.471057	35.381668	2.796518	-0.005260	0.609237
6.597582	35.570471	2.801523	-0.005287	0.609849
6.510256	35.797629	2.806528	-0.005270	0.610337
6.509083	35.988507	2.811533	-0.005271	0.610822
6.682414	36.170503	2.816538	-0.005308	0.611465
6.693597	36.386749	2.821542	-0.005312	0.612025
6.670606	36.586987	2.826547	-0.005308	0.612510
6.721258	36.773340	2.831552	-0.005319	0.613035
6.743483	36.998947	2.836557	-0.005325	0.613629
6.770027	37.180164	2.841562	-0.005332	0.614116
6.795473	37.383201	2.846566	-0.005338	0.614656
6.747656	37.602151	2.851571	-0.005329	0.615160
6.830966	37.776971	2.856576	-0.005348	0.615687
6.874491	37.988648	2.861581	-0.005358	0.616266
6.785255	38.225511	2.866586	-0.005340	0.616771
6.832982	38.382089	2.871590	-0.005351	0.617215
6.909899	38.580712	2.876595	-0.005368	0.617794
6.967541	38.777073	2.881600	-0.005381	0.618347
6.800730	39.026203	2.886605	-0.005347	0.618802
6.856789	39.199041	2.891610	-0.005360	0.619293
6.945667	39.366937	2.896614	-0.005380	0.619806
6.930272	39.597422	2.901619	-0.005378	0.620367
6.907968	39.804174	2.906624	-0.005374	0.620862
6.908717	40.002999	2.911629	-0.005375	0.621361
6.820483	40.230403	2.916634	-0.005358	0.621839
6.961479	40.370630	2.921638	-0.005388	0.622334
6.904034	40.587275	2.926643	-0.005377	0.622817
6.834948	40.805962	2.931648	-0.005364	0.623292
7.096514	40.959171	2.936653	-0.005420	0.623939
7.002912	41.205841	2.941658	-0.005401	0.624458
6.976984	41.417072	2.946662	-0.005397	0.624957
7.018569	41.589469	2.951667	-0.005407	0.625428
7.036643	41.791135	2.956672	-0.005411	0.625948
6.982037	42.028102	2.961677	-0.005401	0.626480
7.117307	42.166833	2.966682	-0.005430	0.626962
7.156299	42.384864	2.971686	-0.005440	0.627541
7.154559	42.607278	2.976691	-0.005440	0.628089
7.124306	42.804188	2.981696	-0.005435	0.628546
7.182554	42.984399	2.986701	-0.005448	0.629051
7.238606	43.206556	2.991706	-0.005461	0.629655
7.221857	43.410107	2.996710	-0.005459	0.630141
7.146964	43.625279	3.001715	-0.005444	0.630596
7.051953	43.808041	3.006720	-0.005425	0.630952
7.089830	44.001255	3.011725	-0.005434	0.631466
7.186500	44.180197	3.016730	-0.005455	0.632003
7.111907	44.423622	3.021734	-0.005441	0.632526
7.173335	44.591260	3.026739	-0.005454	0.633000
7.231205	44.787635	3.031744	-0.005468	0.633540
7.275678	44.986470	3.036749	-0.005478	0.634072
7.329119	45.196406	3.041754	-0.005490	0.634639
7.249031	45.421857	3.046758	-0.005475	0.635111
7.357019	45.584571	3.051763	-0.005498	0.635617
7.405631	45.797925	3.056768	-0.005509	0.636186
7.296293	46.028837	3.061773	-0.005488	0.636641
7.271959	46.224940	3.066778	-0.005483	0.637096
7.360048	46.387712	3.071782	-0.005503	0.637581
7.335886	46.624127	3.076787	-0.005499	0.638133
7.329031	46.800812	3.081792	-0.005498	0.638557
7.352403	46.999946	3.086797	-0.005504	0.639064
7.404632	47.197421	3.091802	-0.005516	0.639596
7.357968	47.417180	3.096806	-0.005508	0.640084
7.331189	47.621160	3.101811	-0.005503	0.640552
7.312113	47.812415	3.106816	-0.005500	0.640998
7.307617	48.010577	3.111821	-0.005500	0.641474
7.354275	48.203730	3.116826	-0.005511	0.641988
7.415858	48.399854	3.121830	-0.005525	0.642523
7.342876	48.622542	3.126835	-0.005511	0.642989
7.525350	48.765915	3.131840	-0.005550	0.643516
7.524416	49.011844	3.136845	-0.005551	0.644108
7.623156	49.196277	3.141850	-0.005573	0.644650
7.550169	49.428065	3.146854	-0.005558	0.645136
7.471435	49.627785	3.151859	-0.005543	0.645541
7.477162	49.812886	3.156864	-0.005545	0.645992
7.481826	50.012170	3.161869	-0.005547	0.646476
7.511704	50.201123	3.166874	-0.005554	0.646960
7.552427	50.409403	3.171878	-0.005564	0.647499
7.595403	50.612303	3.176883	-0.005574	0.648028
7.591168	50.810183	3.181888	-0.005574	0.648498
7.629093	50.995114	3.186893	-0.005583	0.648979
7.640094	51.223411	3.191898	-0.005586	0.649535
7.776501	51.385895	3.196902	-0.005616	0.650057
7.705862	51.635262	3.201907	-0.005602	0.650584
7.719946	51.808805	3.206912	-0.005606	0.651013
7.706251	52.025321	3.211917	-0.005604	0.651516
7.738914	52.208722	3.216922	-0.005612	0.651985
7.688179	52.424475	3.221926	-0.005603	0.652450
7.761556	52.603647	3.226931	-0.005619	0.652948
7.668664	52.826706	3.231936	-0.005601	0.653389
7.751439	53.004028	3.236941	-0.005619	0.653891
7.785356	53.215687	3.241946	-0.005627	0.654426
7.727266	53.434372	3.246950	-0.005616	0.654889
7.812792	53.579600	3.251955	-0.005635	0.655317
7.813217	53.826936	3.256960	-0.005636	0.655903
7.841483	54.011629	3.261965	-0.005643	0.656368
7.689359	54.264627	3.266970	-0.005612	0.656820
7.637435	54.425974	3.271974	-0.005602	0.657153
7.683262	54.615443	3.276979	-0.005613	0.657645
7.750930	54.800871	3.281984	-0.005628	0.658148
7.693123	55.031892	3.286989	-0.005617	0.658638
7.827720	55.199567	3.291994	-0.005646	0.659163
7.911231	55.394995	3.296998	-0.005665	0.659703
7.881371	55.644861	3.302003	-0.005660	0.660262
7.833896	55.820501	3.307008	-0.005651	0.660631
7.904456	56.003010	3.312013	-0.005667	0.661128
7.891058	56.240068	3.317018	-0.005665	0.661671
7.830365	56.425747	3.322022	-0.005653	0.662050
7.792713	56.643313	3.327027	-0.005646	0.662525
7.850621	56.806188	3.332032	-0.005659	0.662962
7.898068	57.004388	3.337037	-0.005670	0.663472
7.979039	57.213076	3.342042	-0.005688	0.664037
7.945276	57.425420	3.347046	-0.005682	0.664502
7.973865	57.611975	3.352051	-0.005689	0.664966
7.977179	57.831981	3.357056	-0.005691	0.665483
8.006865	58.030739	3.362061	-0.005698	0.665975
7.835076	58.251874	3.367066	-0.005663	0.666328
8.016812	58.393843	3.372070	-0.005703	0.666832
8.047025	58.621013	3.377075	-0.005710	0.667389
8.109125	58.816873	3.382080	-0.005724	0.667904
7.989583	59.034861	3.387085	-0.005700	0.668298
8.088338	59.221032	3.392090	-0.005722	0.668824
8.062591	59.431032	3.397094	-0.005717	0.669288
8.083841	59.620454	3.402099	-0.005723	0.669748
8.155199	59.811568	3.407104	-0.005739	0.670258
8.042255	60.064600	3.412109	-0.005716	0.670738
8.013320	60.233988	3.417114	-0.005711	0.671104
7.954125	60.438235	3.422118	-0.005700	0.671521
7.969188	60.633478	3.427123	-0.005704	0.671987
8.025143	60.807911	3.432128	-0.005717	0.672444
8.005745	61.037312	3.437133	-0.005714	0.672955
8.049635	61.232601	3.442138	-0.005724	0.673447
8.155076	61.416574	3.447142	-0.005747	0.673970
8.196390	61.618371	3.452147	-0.005757	0.674474
8.121400	61.834335	3.457152	-0.005742	0.674901
8.207578	62.020401	3.462157	-0.005761	0.675411
8.281706	62.220265	3.467162	-0.005778	0.675939
8.224761	62.450839	3.472166	-0.005767	0.676416
8.294721	62.603227	3.477171	-0.005783	0.676832
8.377918	62.820698	3.482176	-0.005801	0.677408
8.211271	63.078050	3.487181	-0.005767	0.677843
8.181458	63.231814	3.492186	-0.005762	0.678168
8.305658	63.413615	3.497190	-0.005789	0.678701
8.278444	63.632540	3.502195	-0.005784	0.679176
8.216465	63.841472	3.507200	-0.005772	0.679597
8.298996	64.013108	3.512205	-0.005791	0.680066
8.350786	64.227316	3.517210	-0.005803	0.680603
8.372591	64.436969	3.522214	-0.005808	0.681102
8.368779	64.632418	3.527219	-0.005808	0.681544
8.386471	64.833963	3.532224	-0.005813	0.682020
8.316928	65.036316	3.537229	-0.005800	0.682417
8.404276	65.250620	3.542234	-0.005819	0.682985
8.439004	65.410968	3.547238	-0.005827	0.683383
8.428866	65.626593	3.552243	-0.005826	0.683864
8.406095	65.848695	3.557248	-0.005822	0.684347
8.463880	66.024717	3.562253	-0.005836	0.684800
8.375147	66.250532	3.567258	-0.005818	0.685231
8.437267	66.434097	3.572262	-0.005832	0.685704
8.466891	66.637998	3.577267	-0.005839	0.686193
8.371278	66.848185	3.582272	-0.005820	0.686581
8.380784	67.050351	3.587277	-0.005823	0.687048
8.362547	67.231331	3.592282	-0.005820	0.687441
8.385181	67.440822	3.597286	-0.005826	0.687935
8.393825	67.630613	3.602291	-0.005829	0.688372
8.369540	67.840694	3.607296	-0.005825	0.688824
8.489586	68.017270	3.612301	-0.005851	0.689332
8.396947	68.250717	3.617306	-0.005833	0.689773
8.437515	68.435606	3.622310	-0.005842	0.690227
8.426974	68.651431	3.627315	-0.005841	0.690703
8.501464	68.821888	3.632320	-0.005858	0.691155
8.642206	69.027627	3.637325	-0.005888	0.691745
8.450410	69.259846	3.642330	-0.005849	0.692092
8.539969	69.428308	3.647334	-0.005869	0.692552
8.635323	69.630724	3.652339	-0.005890	0.693093
8.514364	69.853023	3.657344	-0.005866	0.693481
8.612265	70.031366	3.662349	-0.005887	0.693970
8.515237	70.255225	3.667354	-0.005868	0.694383
8.588053	70.448548	3.672358	-0.005884	0.694882
8.680912	70.608990	3.677363	-0.005905	0.695325
8.769946	70.820788	3.682368	-0.005925	0.695879
8.674120	71.060126	3.687373	-0.005905	0.696326
8.640182	71.264231	3.692378	-0.005899	0.696751
8.721238	71.423042	3.697382	-0.005917	0.697179
8.666830	71.664711	3.702387	-0.005907	0.697668
8.693244	71.827534	3.707392	-0.005914	0.698055
8.719249	72.045255	3.712397	-0.005920	0.698563
8.815342	72.227694	3.717402	-0.005941	0.699055
8.852461	72.446523	3.722406	-0.005950	0.699575
8.862439	72.634037	3.727411	-0.005953	0.700000
8.739995	72.860238	3.732416	-0.005928	0.700392
8.731971	73.056224	3.737421	-0.005928	0.700820
8.782729	73.243589	3.742426	-0.005940	0.701281
8.774733	73.461864	3.747430	-0.005939	0.701757
8.694189	73.654836	3.752435	-0.005923	0.702112
8.739859	73.838651	3.757440	-0.005934	0.702560
8.669189	74.065223	3.762445	-0.005920	0.702998
8.662492	74.246521	3.767450	-0.005919	0.703393
8.746400	74.423645	3.772454	-0.005938	0.703860
8.855525	74.621598	3.777459	-0.005962	0.704394
8.873641	74.852462	3.782464	-0.005967	0.704919
8.918635	75.049493	3.787469	-0.005977	0.705394
8.993552	75.233155	3.792474	-0.005994	0.705865
8.893364	75.467357	3.797478	-0.005974	0.706291
8.852865	75.659051	3.802483	-0.005967	0.706677
8.818092	75.860257	3.807488	-0.005960	0.707088
8.822344	76.047133	3.812493	-0.005962	0.707503
8.798400	76.267999	3.817498	-0.005958	0.707967
8.885881	76.436365	3.822502	-0.005978	0.708414
8.890376	76.640496	3.827507	-0.005980	0.708866
8.860202	76.857630	3.832512	-0.005974	0.709315
8.879896	77.055598	3.837517	-0.005979	0.709766
8.904595	77.249098	3.842522	-0.005986	0.710212
8.884843	77.468166	3.847526	-0.005982	0.710673
8.826152	77.648313	3.852531	-0.005971	0.711016
8.993500	77.819273	3.857536	-0.006007	0.711538
8.946152	78.066797	3.862541	-0.005998	0.712036
8.993686	78.252926	3.867546	-0.006009	0.712484
9.121588	78.435841	3.872550	-0.006037	0.712996
9.152889	78.625447	3.877555	-0.006045	0.713437
9.096776	78.860881	3.882560	-0.006034	0.713900
9.113544	79.055597	3.887565	-0.006039	0.714339
9.204606	79.237841	3.892570	-0.006059	0.714816
9.158428	79.467708	3.897574	-0.006050	0.715274
9.242962	79.638543	3.902579	-0.006069	0.715720
9.215109	79.871866	3.907584	-0.006064	0.716202
9.167688	80.048419	3.912589	-0.006055	0.716544
9.293040	80.243366	3.917594	-0.006083	0.717076
9.204365	80.463078	3.922598	-0.006065	0.717474
9.154648	80.681025	3.927603	-0.006056	0.717902
9.245886	80.845042	3.932608	-0.006076	0.718338
9.258932	81.034457	3.937613	-0.006080	0.718760
9.315689	81.265378	3.942618	-0.006093	0.719308
9.262272	81.448681	3.947622	-0.006082	0.719657
9.340414	81.661001	3.952627	-0.006100	0.720184
9.256619	81.881786	3.957632	-0.006083	0.720587
9.222110	82.055096	3.962637	-0.006077	0.720931
9.292827	82.252089	3.967642	-0.006093	0.721417
9.289617	82.447487	3.972646	-0.006093	0.721835
9.158104	82.692769	3.977651	-0.006067	0.722248
9.292017	82.842165	3.982656	-0.006096	0.722687
9.311554	83.053251	3.987661	-0.006101	0.723158
9.286350	83.270356	3.992666	-0.006097	0.723602
9.371554	83.434934	3.997670	-0.006116	0.724030
9.381362	83.658668	4.002675	-0.006119	0.724518
9.449589	83.834956	4.007680	-0.006134	0.724956
9.468885	84.068201	4.012685	-0.006139	0.725472
9.435365	84.275314	4.017690	-0.006133	0.725887
9.621230	84.436203	4.022694	-0.006173	0.726393
9.562112	84.654130	4.027699	-0.006162	0.726807
9.560564	84.869042	4.032704	-0.006163	0.727265
9.571373	85.070154	4.037709	-0.006166	0.727704
9.506852	85.285583	4.042714	-0.006153	0.728108
9.623339	85.440270	4.047718	-0.006179	0.728540
9.619583	85.662402	4.052723	-0.006179	0.729010
9.543365	85.871191	4.057728	-0.006164	0.729389
9.509608	86.067654	4.062733	-0.006158	0.729779
9.567414	86.258804	4.067738	-0.006171	0.730236
9.752684	86.438935	4.072742	-0.006211	0.730779
9.644964	86.681298	4.077747	-0.006190	0.731201
9.574428	86.883633	4.082752	-0.006176	0.731570
9.571882	87.075657	4.087757	-0.006176	0.731976
9.699376	87.239042	4.092762	-0.006204	0.732433
9.715088	87.459429	4.097766	-0.006208	0.732914
9.771038	87.651491	4.102771	-0.006221	0.733369
9.758181	87.862001	4.107776	-0.006219	0.733804
9.791381	88.069200	4.112781	-0.006227	0.734271
9.719388	88.273013	4.117786	-0.006213	0.734640
9.775958	88.468911	4.122790	-0.006226	0.735103
9.819711	88.659816	4.127795	-0.006237	0.735544
9.696939	88.885376	4.132800	-0.006212	0.735915
9.727280	89.057393	4.137805	-0.006219	0.736305
9.805886	89.266608	4.142810	-0.006237	0.736814
9.856101	89.455702	4.147814	-0.006248	0.737255
9.635440	89.708889	4.152819	-0.006203	0.737600
9.674888	89.867251	4.157824	-0.006212	0.737968
9.664635	90.078408	4.162829	-0.006211	0.738404
9.685078	90.272736	4.167834	-0.006216	0.738830
9.695546	90.460799	4.172838	-0.006220	0.739235
9.735069	90.662529	4.177843	-0.006229	0.739692
9.627881	90.890787	4.182848	-0.006207	0.740080
9.735897	91.051593	4.187853	-0.006231	0.740511
9.715328	91.280751	4.192858	-0.006228	0.740973
9.743002	91.462054	4.197862	-0.006235	0.741377
9.780909	91.665608	4.202867	-0.006244	0.741836
9.655007	91.895460	4.207872	-0.006218	0.742210
9.858569	92.043309	4.212877	-0.006262	0.742693
9.849069	92.270866	4.217882	-0.006261	0.743161
9.862245	92.468990	4.222886	-0.006265	0.743586
9.892231	92.682775	4.227891	-0.006272	0.744058
9.882952	92.851066	4.232896	-0.006271	0.744402
9.915193	93.070298	4.237901	-0.006279	0.744887
9.901242	93.285679	4.242906	-0.006277	0.745324
9.901424	93.473904	4.247910	-0.006278	0.745717
9.907081	93.676940	4.252915	-0.006280	0.746145
9.993464	93.860769	4.257920	-0.006300	0.746601
10.031540	94.057407	4.262925	-0.006309	0.747042
10.063185	94.289954	4.267930	-0.006316	0.747552
10.011766	94.469821	4.272934	-0.006307	0.747883
10.105877	94.666794	4.277939	-0.006327	0.748371
9.925609	94.917000	4.282944	-0.006291	0.748738
9.951676	95.067318	4.287949	-0.006297	0.749073
10.037232	95.257636	4.292954	-0.006316	0.749540
9.958520	95.498754	4.297958	-0.006301	0.749973
9.938361	95.695632	4.302963	-0.006297	0.750364
9.857239	95.877455	4.307968	-0.006281	0.750673
9.859675	96.082840	4.312973	-0.006283	0.751100
9.918716	96.276214	4.317978	-0.006296	0.751550
9.953427	96.478964	4.322982	-0.006305	0.751998
10.054784	96.653997	4.327987	-0.006327	0.752445
10.018795	96.881777	4.332992	-0.006320	0.752885
9.969306	97.091707	4.337997	-0.006311	0.753276
11.679377	96.643275	4.343002	-0.006672	0.753790
22.581274	95.786938	4.348006	-0.008966	0.761094
23.491038	97.328727	4.353011	-0.009159	0.764957
23.834986	97.797440	4.358016	-0.009232	0.766185
24.125319	98.020709	4.363021	-0.009295	0.766875
24.174838	98.276752	4.368026	-0.009306	0.767433
24.353320	98.461309	4.373030	-0.009345	0.767953
24.238474	98.687767	4.378035	-0.009321	0.768317
24.337782	98.874902	4.383040	-0.009343	0.768777
24.422341	99.065070	4.388045	-0.009362	0.769230
24.481774	99.266754	4.393050	-0.009376	0.769686
24.481587	99.484301	4.398054	-0.009377	0.770124
24.583180	99.687694	4.403059	-0.009399	0.770617
24.563516	99.891282	4.408064	-0.009396	0.771012
24.609231	100.060597	4.413069	-0.009407	0.771391
24.656286	100.284608	4.418074	-0.009418	0.771880
24.644546	100.487872	4.423078	-0.009416	0.772279
24.773850	100.652677	4.428083	-0.009444	0.772716
24.741523	100.900234	4.433088	-0.009439	0.773187
24.735029	101.080633	4.438093	-0.009438	0.773544
24.764857	101.277698	4.443098	-0.009445	0.773964
24.700829	101.495329	4.448102	-0.009433	0.774349
24.870460	101.658306	4.453107	-0.009470	0.774814
24.858386	101.889437	4.458112	-0.009468	0.775267
25.042258	102.052197	4.463117	-0.009508	0.775743
25.089029	102.290820	4.468122	-0.009519	0.776257
25.096770	102.494052	4.473126	-0.009521	0.776670
25.137562	102.668547	4.478131	-0.009531	0.777053
25.248287	102.857831	4.483136	-0.009555	0.777521
25.368866	103.074212	4.488141	-0.009582	0.778050
25.455490	103.281210	4.493146	-0.009601	0.778533
25.512454	103.476437	4.498150	-0.009614	0.778969
25.412194	103.707090	4.503155	-0.009594	0.779347
25.447896	103.900542	4.508160	-0.009603	0.779762
25.530211	104.070350	4.513165	-0.009621	0.780167
25.474128	104.293416	4.518170	-0.009610	0.780565
25.599346	104.468082	4.523174	-0.009637	0.781014
25.543090	104.701780	4.528179	-0.009627	0.781433
25.547829	104.888596	4.533184	-0.009629	0.781808
25.578587	105.091909	4.538189	-0.009636	0.782237
25.632573	105.283766	4.543194	-0.009649	0.782661
25.689091	105.466648	4.548198	-0.009661	0.783070
26.051975	105.628872	4.553203	-0.009739	0.783683
26.576652	105.788983	4.558208	-0.009850	0.784421
26.732881	106.076109	4.563213	-0.009884	0.785113
26.748112	106.283334	4.568218	-0.009888	0.785535
26.814417	106.476109	4.573222	-0.009903	0.785969
26.864530	106.693237	4.578227	-0.009915	0.786438
26.742560	106.910077	4.583232	-0.009890	0.786769
26.842149	107.082726	4.588237	-0.009912	0.787189
26.955898	107.276160	4.593242	-0.009937	0.787662
27.057899	107.471653	4.598246	-0.009960	0.788129
27.038215	107.698779	4.603251	-0.009957	0.788560
27.106317	107.888359	4.608256	-0.009972	0.788988
27.030220	108.110942	4.613261	-0.009957	0.789365
27.114589	108.272687	4.618266	-0.009976	0.789751
27.129547	108.508067	4.623270	-0.009980	0.790225
27.154544	108.692588	4.628275	-0.009986	0.790608
27.072363	108.896908	4.633280	-0.009970	0.790944
27.223247	109.088967	4.638285	-0.010003	0.791441
27.191147	109.302247	4.643290	-0.009997	0.791834
27.108968	109.505065	4.648294	-0.009981	0.792167
27.192544	109.689745	4.653299	-0.009999	0.792596
27.271847	109.876408	4.658304	-0.010017	0.793024
27.357922	110.085340	4.663309	-0.010036	0.793501
27.425984	110.297414	4.668314	-0.010051	0.793970
27.384167	110.488914	4.673318	-0.010044	0.794312
27.484607	110.691949	4.678323	-0.010066	0.794788
27.465453	110.886208	4.683328	-0.010063	0.795153
27.582229	111.087284	4.688333	-0.010088	0.795638
27.603195	111.305280	4.693338	-0.010094	0.796079
27.504558	111.507482	4.698342	-0.010074	0.796396
27.556593	111.690079	4.703347	-0.010086	0.796794
27.509224	111.913899	4.708352	-0.010077	0.797192
27.679054	112.074217	4.713357	-0.010114	0.797639
27.478298	112.344259	4.718362	-0.010073	0.798006
27.622576	112.476803	4.723366	-0.010104	0.798378
27.560895	112.704840	4.728371	-0.010092	0.798773
27.622252	112.882187	4.733376	-0.010106	0.799166
27.591537	113.114513	4.738381	-0.010101	0.799593
27.624740	113.296444	4.743386	-0.010109	0.799973
27.617851	113.514900	4.748390	-0.010108	0.800392
28.051517	113.621519	4.753395	-0.010200	0.800940
28.114923	113.882356	4.758400	-0.010215	0.801494
28.009500	114.126213	4.763405	-0.010194	0.801883
28.121176	114.286214	4.768410	-0.010218	0.802281
28.214024	114.495231	4.773414	-0.010239	0.802759
28.153269	114.712447	4.778419	-0.010227	0.803131
28.215571	114.895623	4.783424	-0.010241	0.803534
28.229721	115.092085	4.788429	-0.010245	0.803925
28.260866	115.298609	4.793434	-0.010253	0.804348
28.284706	115.508472	4.798438	-0.010259	0.804772
28.335496	115.689420	4.803443	-0.010270	0.805161
28.324796	115.911048	4.808448	-0.010269	0.805580
28.365963	116.099924	4.813453	-0.010279	0.805976
28.374067	116.308182	4.818458	-0.010282	0.806384
28.344828	116.520307	4.823462	-0.010277	0.806770
28.316660	116.709414	4.828467	-0.010272	0.807112
28.359317	116.891690	4.833472	-0.010282	0.807496
28.351829	117.118463	4.838477	-0.010281	0.807926
28.410371	117.309844	4.843482	-0.010294	0.808340
28.403108	117.489266	4.848486	-0.010294	0.808679
28.511085	117.693825	4.853491	-0.010318	0.809156
28.547516	117.894998	4.858496	-0.010326	0.809570
28.594367	118.098940	4.863501	-0.010337	0.809997
28.563271	118.325674	4.868506	-0.010332	0.810408
28.685574	118.501782	4.873510	-0.010358	0.810840
28.721890	118.689551	4.878515	-0.010367	0.811228
28.705337	118.916534	4.883520	-0.010365	0.811650
28.655749	119.115042	4.888525	-0.010355	0.811991
28.759086	119.304311	4.893530	-0.010378	0.812433
28.679873	119.520955	4.898534	-0.010362	0.812786
28.799727	119.694610	4.903539	-0.010389	0.813211
28.752444	119.912702	4.908544	-0.010380	0.813590
28.850964	120.090317	4.913549	-0.010401	0.814006
28.768842	120.318956	4.918554	-0.010385	0.814378
28.752913	120.516422	4.923558	-0.010383	0.814743
28.825745	120.706014	4.928563	-0.010399	0.815160
28.839910	120.897115	4.933568	-0.010403	0.815536
28.850746	121.110024	4.938573	-0.010407	0.815949
28.798736	121.338043	4.943578	-0.010397	0.816343
28.875917	121.512837	4.948582	-0.010414	0.816735
28.940737	121.691067	4.953587	-0.010429	0.817124
28.963230	121.908279	4.958592	-0.010434	0.817554
28.923881	122.115291	4.963597	-0.010427	0.817917
28.852267	122.338767	4.968602	-0.010413	0.818286
28.774630	122.519281	4.973606	-0.010398	0.818570
28.891342	122.699062	4.978611	-0.010423	0.819000
28.766270	122.927325	4.983616	-0.010398	0.819337
28.832315	123.103970	4.988621	-0.010413	0.819723
28.828925	123.324090	4.993626	-0.010413	0.820137
28.962220	123.498891	4.998630	-0.010442	0.820570
28.925882	123.720916	5.003635	-0.010436	0.820963
29.005537	123.902550	5.008640	-0.010453	0.821367
29.056329	124.118970	5.013645	-0.010465	0.821815
29.090929	124.289781	5.018650	-0.010473	0.822165
29.199117	124.509636	5.023654	-0.010497	0.822662
29.270041	124.705796	5.028659	-0.010513	0.823087
29.301832	124.916840	5.033664	-0.010521	0.823509
29.323453	125.112461	5.038669	-0.010526	0.823894
29.300368	125.320239	5.043674	-0.010523	0.824268
29.342069	125.520964	5.048678	-0.010532	0.824678
29.295566	125.705372	5.053683	-0.010524	0.824991
29.341536	125.914347	5.058688	-0.010534	0.825419
29.315116	126.130722	5.063693	-0.010530	0.825806
29.318894	126.322788	5.068698	-0.010532	0.826170
29.487494	126.491172	5.073702	-0.010568	0.826615
29.426777	126.725252	5.078707	-0.010556	0.827008
29.404467	126.922771	5.083712	-0.010553	0.827362
29.495522	127.106410	5.088717	-0.010573	0.827776
29.531664	127.312983	5.093722	-0.010582	0.828191
29.387045	127.555575	5.098726	-0.010552	0.828536
29.425279	127.706975	5.103731	-0.010561	0.828849
29.503552	127.909848	5.108736	-0.010579	0.829289
29.525987	128.122074	5.113741	-0.010584	0.829703
29.665230	128.288874	5.118746	-0.010615	0.830121
29.928365	128.489221	5.123750	-0.010671	0.830694
29.939369	128.726252	5.128755	-0.010674	0.831145
29.999805	128.900820	5.133760	-0.010688	0.831517
30.233598	129.090346	5.138765	-0.010738	0.832048
30.127239	129.346128	5.143770	-0.010717	0.832444
30.286173	129.499920	5.148774	-0.010752	0.832851
30.282339	129.724354	5.153779	-0.010752	0.833266
30.291433	129.934081	5.158784	-0.010755	0.833664
30.201749	130.129050	5.163789	-0.010737	0.833960
30.407666	130.296198	5.168794	-0.010781	0.834427
30.453932	130.512011	5.173798	-0.010792	0.834863
30.560294	130.702213	5.178803	-0.010815	0.835296
30.506778	130.928459	5.183808	-0.010805	0.835677
30.478930	131.153425	5.188813	-0.010800	0.836073
30.612515	131.302851	5.193818	-0.010829	0.836452
30.586050	131.523720	5.198822	-0.010825	0.836842
30.577262	131.745431	5.203827	-0.010824	0.837246
30.585333	131.908983	5.208832	-0.010827	0.837557
30.593215	132.126223	5.213837	-0.010829	0.837965
30.581929	132.348482	5.218842	-0.010828	0.838368
30.605531	132.526952	5.223846	-0.010834	0.838717
30.730767	132.697754	5.228851	-0.010861	0.839127
30.784386	132.915403	5.233856	-0.010874	0.839570
30.720303	133.129623	5.238861	-0.010861	0.839918
30.671249	133.351358	5.243866	-0.010852	0.840291
30.686009	133.533480	5.248870	-0.010856	0.840639
30.794546	133.710017	5.253875	-0.010880	0.841046
30.838783	133.926063	5.258880	-0.010890	0.841478
30.841359	134.131816	5.263885	-0.010892	0.841859
30.676358	134.371054	5.268890	-0.010858	0.842177
30.830394	134.493543	5.273894	-0.010892	0.842519
30.903009	134.721970	5.278899	-0.010908	0.842994
30.896824	134.938167	5.283904	-0.010908	0.843387
30.844236	135.133937	5.288909	-0.010898	0.843709
31.051303	135.280441	5.293914	-0.010942	0.844133
31.017869	135.533892	5.298918	-0.010936	0.844574
31.037347	135.734179	5.303923	-0.010941	0.844956
30.964989	135.946853	5.308928	-0.010927	0.845294
31.050248	136.117675	5.313933	-0.010946	0.845671
31.020128	136.341809	5.318938	-0.010941	0.846060
31.065842	136.527497	5.323942	-0.010951	0.846435
30.957170	136.746510	5.328947	-0.010930	0.846756
31.060688	136.935227	5.333952	-0.010952	0.847179
31.071270	137.115409	5.338957	-0.010956	0.847517
31.128887	137.322155	5.343962	-0.010969	0.847939
31.151696	137.549162	5.348966	-0.010975	0.848371
31.159265	137.741423	5.353971	-0.010977	0.848729
31.195806	137.912332	5.358976	-0.010986	0.849069
31.189651	138.145453	5.363981	-0.010986	0.849490
31.136765	138.343393	5.368986	-0.010976	0.849813
31.130073	138.531961	5.373990	-0.010975	0.850153
31.265896	138.717403	5.378995	-0.011005	0.850592
31.251122	138.949701	5.384000	-0.011003	0.851005
31.242114	139.128982	5.389005	-0.011002	0.851326
31.259430	139.342589	5.394010	-0.011006	0.851728
31.360519	139.524161	5.399014	-0.011029	0.852134
31.273995	139.737551	5.404019	-0.011012	0.852459
31.212592	139.956143	5.409024	-0.011000	0.852812
31.299027	140.127217	5.414029	-0.011019	0.853187
31.255461	140.338417	5.419034	-0.011011	0.853540
31.333877	140.511979	5.424038	-0.011028	0.853913
31.419426	140.724849	5.429043	-0.011047	0.854363
31.386833	140.941261	5.434048	-0.011041	0.854732
31.402748	141.139761	5.439053	-0.011046	0.855105
31.513934	141.334611	5.444058	-0.011070	0.855540
31.547043	141.537210	5.449062	-0.011078	0.855932
31.601936	141.725314	5.454067	-0.011091	0.856314
31.639785	141.923532	5.459072	-0.011100	0.856701
31.571517	142.150800	5.464077	-0.011086	0.857062
31.605069	142.337951	5.469082	-0.011095	0.857426
31.643591	142.552666	5.474086	-0.011104	0.857843
31.628364	142.713881	5.479091	-0.011101	0.858125
32.482495	142.793360	5.484096	-0.011282	0.858893
32.894552	143.087116	5.489101	-0.011370	0.859723
33.052267	143.329200	5.494106	-0.011404	0.860274
33.013056	143.525326	5.499110	-0.011397	0.860600
33.137574	143.725629	5.504115	-0.011424	0.861052
33.270454	143.921703	5.509120	-0.011453	0.861502
33.257374	144.146630	5.514125	-0.011451	0.861898
33.583782	144.297485	5.519130	-0.011521	0.862407
33.615527	144.544286	5.524134	-0.011529	0.862874
33.738431	144.716757	5.529139	-0.011556	0.863274
33.647219	144.964983	5.534144	-0.011538	0.863653
33.924287	145.099810	5.539149	-0.011597	0.864098
34.019565	145.316245	5.544154	-0.011618	0.864555
33.960233	145.545284	5.549158	-0.011606	0.864923
34.009914	145.752856	5.554163	-0.011618	0.865332
34.169804	145.913523	5.559168	-0.011653	0.865737
34.337342	146.125887	5.564173	-0.011689	0.866238
34.366457	146.346351	5.569178	-0.011696	0.866654
34.501848	146.522918	5.574182	-0.011726	0.867069
34.566850	146.735439	5.579187	-0.011740	0.867496
34.454008	146.963524	5.584192	-0.011718	0.867823
34.578959	147.123031	5.589197	-0.011745	0.868199
34.573261	147.363163	5.594202	-0.011745	0.868624
34.712230	147.525189	5.599206	-0.011775	0.869014
34.596561	147.751392	5.604211	-0.011752	0.869335
34.815010	147.912518	5.609216	-0.011799	0.869780
34.984260	148.122075	5.614221	-0.011835	0.870276
34.975983	148.356368	5.619226	-0.011835	0.870687
35.141147	148.528510	5.624230	-0.011870	0.871114
35.126926	148.747541	5.629235	-0.011868	0.871494
35.194669	148.947800	5.634240	-0.011884	0.871899
35.162304	149.143519	5.639245	-0.011878	0.872224
35.115224	149.362640	5.644250	-0.011869	0.872581
35.128893	149.551608	5.649254	-0.011873	0.872927
35.320618	149.709192	5.654259	-0.011914	0.873345
35.260425	149.966568	5.659264	-0.011903	0.873759
35.239183	150.137807	5.664269	-0.011899	0.874049
35.274432	150.357055	5.669274	-0.011908	0.874463
35.338410	150.537089	5.674278	-0.011922	0.874829
35.361072	150.735383	5.679283	-0.011928	0.875197
35.398826	150.960364	5.684288	-0.011937	0.875623
35.427449	151.149849	5.689293	-0.011944	0.875979
35.316248	151.371591	5.694298	-0.011921	0.876293
35.331365	151.549425	5.699302	-0.011926	0.876619
35.406061	151.740830	5.704307	-0.011942	0.877012
35.483374	151.941242	5.709312	-0.011960	0.877422
35.480109	152.146603	5.714317	-0.011960	0.877783
35.566503	152.348252	5.719322	-0.011979	0.878201
35.474052	152.571066	5.724326	-0.011961	0.878529
35.578823	152.739144	5.729331	-0.011984	0.878901
35.533438	152.955462	5.734336	-0.011975	0.879251
35.514670	153.140070	5.739341	-0.011972	0.879564
35.548181	153.352186	5.744346	-0.011980	0.879962
35.582032	153.542163	5.749350	-0.011989	0.880321
35.927500	153.708898	5.754355	-0.012062	0.880861
35.919497	153.952845	5.759360	-0.012062	0.881285
35.953514	154.163459	5.764365	-0.012070	0.881680
35.866760	154.374809	5.769370	-0.012053	0.881991
35.903981	154.543752	5.774374	-0.012061	0.882315
35.929121	154.751345	5.779379	-0.012068	0.882698
35.899642	154.953102	5.784384	-0.012063	0.883032
35.962079	155.163281	5.789389	-0.012077	0.883446
36.026650	155.340603	5.794394	-0.012091	0.883804
36.069858	155.547683	5.799398	-0.012102	0.884198
35.909100	155.786520	5.804403	-0.012069	0.884503
35.907018	155.947372	5.809408	-0.012069	0.884785
35.930192	156.162127	5.814413	-0.012075	0.885178
36.041636	156.329160	5.819418	-0.012100	0.885550
36.082021	156.560936	5.824422	-0.012109	0.885984
36.058192	156.757693	5.829427	-0.012105	0.886313
36.087883	156.952785	5.834432	-0.012112	0.886675
36.157977	157.167991	5.839437	-0.012128	0.887102
36.283648	157.320033	5.844442	-0.012156	0.887457
36.163060	157.580970	5.849446	-0.012131	0.887828
36.267945	157.745863	5.854451	-0.012154	0.888191
36.162885	157.969520	5.859456	-0.012133	0.888507
36.449724	158.124395	5.864461	-0.012195	0.888981
36.495128	158.343916	5.869466	-0.012205	0.889396
36.414201	158.583651	5.874470	-0.012189	0.889757
36.606386	158.732945	5.879475	-0.012231	0.890153
36.733275	158.938782	5.884480	-0.012258	0.890601
36.703014	159.159478	5.889485	-0.012253	0.890964
36.727455	159.370918	5.894490	-0.012259	0.891350
36.764933	159.550017	5.899494	-0.012268	0.891689
36.620973	159.782144	5.904499	-0.012239	0.891991
36.652891	159.956038	5.909504	-0.012247	0.892317
36.675697	160.149327	5.914509	-0.012253	0.892669
36.618051	160.398172	5.919514	-0.012241	0.893061
36.734378	160.538270	5.924518	-0.012267	0.893387
36.675120	160.774259	5.929523	-0.012255	0.893755
36.641670	160.958805	5.934528	-0.012249	0.894053
36.741995	161.147041	5.939533	-0.012272	0.894450
36.794145	161.361035	5.944538	-0.012284	0.894858
36.831775	161.545070	5.949542	-0.012293	0.895204
36.815484	161.776577	5.954547	-0.012290	0.895593
36.872790	161.949966	5.959552	-0.012303	0.895935
36.910408	162.159757	5.964557	-0.012312	0.896324
37.012161	162.362514	5.969562	-0.012335	0.896746
36.973114	162.569617	5.974566	-0.012327	0.897078
36.958968	162.764307	5.979571	-0.012325	0.897405
36.948250	162.961637	5.984576	-0.012324	0.897739
37.019364	163.153130	5.989581	-0.012340	0.898120
37.130310	163.368512	5.994586	-0.012365	0.898569
37.177354	163.558088	5.999590	-0.012375	0.898930
37.193994	163.755219	6.004595	-0.012380	0.899282
37.377947	163.943569	6.009600	-0.012420	0.899735
37.227262	164.189633	6.014605	-0.012389	0.900054
38.085740	164.214367	6.019610	-0.012571	0.900696
38.216383	164.575768	6.024614	-0.012599	0.901407
38.346329	164.730102	6.029619	-0.012628	0.901764
38.449430	164.948101	6.034624	-0.012650	0.902210
38.540755	165.158650	6.039629	-0.012671	0.902636
38.566712	165.378140	6.044634	-0.012677	0.903031
38.514143	165.572617	6.049638	-0.012667	0.903329
38.626019	165.760827	6.054643	-0.012692	0.903730
38.757790	165.940328	6.059648	-0.012720	0.904130
38.676098	166.167355	6.064653	-0.012704	0.904463
38.824837	166.363064	6.069658	-0.012736	0.904902
38.816740	166.565970	6.074662	-0.012736	0.905244
38.924828	166.745656	6.079667	-0.012760	0.905627
38.881556	166.964068	6.084672	-0.012751	0.905972
38.758235	167.203479	6.089677	-0.012727	0.906296
38.906006	167.356135	6.094682	-0.012759	0.906661
38.821721	167.579746	6.099686	-0.012742	0.906985
39.470470	167.675237	6.104691	-0.012879	0.907597
39.545546	167.955527	6.109696	-0.012896	0.908127
39.446867	168.192852	6.114701	-0.012877	0.908464
39.781849	168.317128	6.119706	-0.012948	0.908908
39.894749	168.557370	6.124710	-0.012973	0.909396
39.883823	168.778492	6.129715	-0.012972	0.909765
39.986557	168.955719	6.134720	-0.012994	0.910139
39.977838	169.184670	6.139725	-0.012993	0.910523
40.075896	169.354278	6.144730	-0.013015	0.910880
40.137594	169.573729	6.149734	-0.013029	0.911296
40.071320	169.769824	6.154739	-0.013016	0.911585
40.064889	169.982431	6.159744	-0.013016	0.911942
40.039297	170.175179	6.164749	-0.013011	0.912253
40.134591	170.362425	6.169754	-0.013032	0.912637
40.082197	170.591531	6.174758	-0.013022	0.912991
40.149545	170.762230	6.179763	-0.013038	0.913328
40.156151	170.986544	6.184768	-0.013040	0.913713
40.197087	171.155513	6.189773	-0.013050	0.914029
40.310355	171.355578	6.194778	-0.013075	0.914446
40.302999	171.583335	6.199782	-0.013074	0.914827
40.181538	171.780538	6.204787	-0.013050	0.915079
40.259809	171.973223	6.209792	-0.013067	0.915460
40.298225	172.178095	6.214797	-0.013076	0.915833
40.291790	172.382490	6.219802	-0.013076	0.916175
40.316499	172.580547	6.224806	-0.013082	0.916528
40.286695	172.764815	6.229811	-0.013077	0.916820
40.318504	172.987265	6.234816	-0.013084	0.917218
40.308472	173.170665	6.239821	-0.013083	0.917522
40.334744	173.382600	6.244826	-0.013090	0.917898
40.442163	173.558331	6.249830	-0.013114	0.918269
40.377480	173.794416	6.254835	-0.013101	0.918624
40.301819	173.994107	6.259840	-0.013086	0.918910
40.468146	174.162540	6.264845	-0.013122	0.919308
40.395015	174.383772	6.269850	-0.013108	0.919632
40.442356	174.566202	6.274854	-0.013119	0.919972
40.474910	174.767084	6.279859	-0.013127	0.920333
40.529009	174.966684	6.284864	-0.013139	0.920707
40.530629	175.191744	6.289869	-0.013140	0.921087
40.614978	175.374108	6.294874	-0.013159	0.921452
40.750623	175.558186	6.299878	-0.013189	0.921854
40.785149	175.757402	6.304883	-0.013197	0.922213
40.855340	175.986644	6.309888	-0.013213	0.922646
40.811433	176.196809	6.314893	-0.013205	0.922970
40.842045	176.379231	6.319898	-0.013212	0.923298
40.927289	176.565978	6.324902	-0.013231	0.923670
40.954906	176.777330	6.329907	-0.013238	0.924044
40.957237	176.979574	6.334912	-0.013239	0.924385
41.072136	177.158444	6.339917	-0.013265	0.924763
41.049098	177.395926	6.344922	-0.013261	0.925146
41.040791	177.569679	6.349926	-0.013260	0.925432
41.068234	177.787590	6.354931	-0.013267	0.925816
41.056227	177.993557	6.359936	-0.013265	0.926154
41.007466	178.193926	6.364941	-0.013256	0.926457
41.084909	178.360533	6.369946	-0.013273	0.926789
41.188424	178.576371	6.374950	-0.013296	0.927220
41.138383	178.794411	6.379955	-0.013287	0.927551
41.006274	178.997906	6.384960	-0.013260	0.927803
41.119256	179.175199	6.389965	-0.013285	0.928176
41.151177	179.383830	6.394970	-0.013292	0.928546
41.145026	179.582034	6.399974	-0.013292	0.928873
41.169607	179.785656	6.404979	-0.013298	0.929230
41.082001	179.984615	6.409984	-0.013281	0.929504
41.145637	180.182490	6.414989	-0.013295	0.929877
41.263172	180.387374	6.419994	-0.013321	0.930298
41.273372	180.567891	6.424998	-0.013324	0.930606
41.342343	180.781252	6.430003	-0.013340	0.931009
41.285927	181.016064	6.435008	-0.013329	0.931362
41.258597	181.183096	6.440013	-0.013324	0.931622
41.215736	181.384463	6.445018	-0.013316	0.931929
41.239415	181.586135	6.450022	-0.013322	0.932281
41.309655	181.781393	6.455027	-0.013338	0.932653
41.276235	182.002423	6.460032	-0.013332	0.932999
41.311753	182.194328	6.465037	-0.013341	0.933342
41.353232	182.384271	6.470042	-0.013350	0.933686
41.439277	182.556920	6.475046	-0.013369	0.934031
41.383752	182.794338	6.480051	-0.013359	0.934388
41.335266	182.991283	6.485056	-0.013350	0.934683
41.295426	183.203561	6.490061	-0.013342	0.935009
41.414965	183.372268	6.495066	-0.013368	0.935369
41.263210	183.610063	6.500070	-0.013338	0.935662
41.338952	183.779977	6.505075	-0.013354	0.935995
41.273753	184.016549	6.510080	-0.013342	0.936344
41.331166	184.169669	6.515085	-0.013355	0.936636
41.327990	184.396911	6.520090	-0.013355	0.937011
41.264797	184.602701	6.525094	-0.013343	0.937309
41.336165	184.782217	6.530099	-0.013359	0.937655
41.367621	184.985663	6.535104	-0.013367	0.938012
41.409362	185.192591	6.540109	-0.013376	0.938383
41.659122	185.335084	6.545114	-0.013430	0.938785
42.189718	185.531944	6.550118	-0.013543	0.939464
42.290087	185.770567	6.555123	-0.013565	0.939924
42.313270	185.987826	6.560128	-0.013571	0.940298
42.339462	186.204243	6.565133	-0.013577	0.940673
42.413116	186.363592	6.570138	-0.013594	0.940985
42.598235	186.575081	6.575142	-0.013634	0.941457
42.803052	186.758848	6.580147	-0.013678	0.941896
42.963412	186.980568	6.585152	-0.013713	0.942367
42.974827	187.193299	6.590157	-0.013716	0.942725
43.115474	187.371209	6.595162	-0.013747	0.943111
43.138503	187.604056	6.600166	-0.013753	0.943509
43.192812	187.766950	6.605171	-0.013765	0.943814
43.404727	187.971661	6.610176	-0.013811	0.944291
43.633459	188.162418	6.615181	-0.013860	0.944755
43.548070	188.400679	6.620186	-0.013843	0.945090
43.585874	188.578929	6.625190	-0.013852	0.945408
43.995772	188.746516	6.630195	-0.013939	0.945954
44.207595	188.969949	6.635200	-0.013985	0.946460
44.214303	189.201257	6.640205	-0.013987	0.946844
44.342301	189.380686	6.645210	-0.014015	0.947222
44.430869	189.564373	6.650214	-0.014035	0.947582
44.499756	189.799558	6.655219	-0.014050	0.948012
44.507764	190.011384	6.660224	-0.014053	0.948364
44.493674	190.195911	6.665229	-0.014051	0.948657
44.642807	190.360529	6.670234	-0.014083	0.949025
44.973113	190.569366	6.675238	-0.014154	0.949584
45.076193	190.779973	6.680243	-0.014177	0.949996
45.150259	190.993873	6.685248	-0.014193	0.950394
45.111231	191.204143	6.690253	-0.014186	0.950711
45.171292	191.383228	6.695258	-0.014200	0.951044
45.399635	191.568011	6.700262	-0.014249	0.951495
45.518555	191.791985	6.705267	-0.014275	0.951938
45.509578	191.999813	6.710272	-0.014274	0.952271
45.686391	192.186472	6.715277	-0.014312	0.952692
45.766978	192.393500	6.720282	-0.014330	0.953082
45.880250	192.583263	6.725286	-0.014355	0.953465
45.865354	192.804567	6.730291	-0.014353	0.953815
45.990694	192.962704	6.735296	-0.014380	0.954155
45.961838	193.205421	6.740301	-0.014375	0.954531
45.977046	193.397030	6.745306	-0.014379	0.954852
46.015190	193.595548	6.750310	-0.014389	0.955200
46.168229	193.779856	6.755315	-0.014422	0.955600
46.248660	193.992542	6.760320	-0.014440	0.955998
46.350145	194.191264	6.765325	-0.014462	0.956386
46.273205	194.419601	6.770330	-0.014447	0.956707
46.435253	194.578024	6.775334	-0.014482	0.957070
46.378573	194.810483	6.780339	-0.014471	0.957410
46.355192	195.012218	6.785344	-0.014467	0.957721
46.392023	195.207156	6.790349	-0.014476	0.958062
46.569230	195.351443	6.795354	-0.014514	0.958412
46.955113	195.575869	6.800358	-0.014597	0.959026
46.981883	195.799956	6.805363	-0.014603	0.959405
47.068415	195.985400	6.810368	-0.014622	0.959762
47.138905	196.199452	6.815373	-0.014638	0.960154
47.146886	196.390545	6.820378	-0.014641	0.960468
47.233340	196.596648	6.825382	-0.014660	0.960857
47.275445	196.811365	6.830387	-0.014670	0.961231
47.419770	196.985864	6.835392	-0.014701	0.961607
47.547035	197.191826	6.840397	-0.014729	0.962022
47.533394	197.403933	6.845402	-0.014727	0.962355
47.647974	197.589350	6.850406	-0.014753	0.962729
47.690646	197.811138	6.855411	-0.014763	0.963114
47.769827	197.991581	6.860416	-0.014780	0.963456
47.909712	198.184326	6.865421	-0.014811	0.963857
48.024223	198.393381	6.870426	-0.014836	0.964268
47.946609	198.610465	6.875430	-0.014821	0.964567
48.005549	198.797774	6.880435	-0.014834	0.964907
48.032002	199.020365	6.885440	-0.014841	0.965282
48.097653	199.203202	6.890445	-0.014855	0.965618
48.168453	199.400986	6.895450	-0.014871	0.965982
48.132862	199.612503	6.900454	-0.014865	0.966299
48.200265	199.792353	6.905459	-0.014880	0.966632
48.117811	199.973636	6.910464	-0.014864	0.966870
48.290651	199.985306	6.915469	-0.014901	0.967003

48.433138	199.964582	6.920474	-0.014932	0.967065
48.539437	199.988118	6.925478	-0.014955	0.967174
48.541220	200.004101	6.930483	-0.014957	0.967203
48.769295	199.963574	6.935488	-0.015006	0.967289
48.805070	200.000685	6.940493	-0.015014	0.967374
48.761824	200.014204	6.945498	-0.015006	0.967371
48.927681	199.950940	6.950502	-0.015042	0.967380
48.870226	200.003793	6.955507	-0.015031	0.967430
48.933551	199.996757	6.960512	-0.015045	0.967463
48.961576	199.991998	6.965517	-0.015052	0.967476
48.857250	200.010091	6.970522	-0.015031	0.967441
49.039441	199.983509	6.975526	-0.015070	0.967519
48.943971	199.996883	6.980531	-0.015051	0.967481
49.031521	200.006298	6.985536	-0.015071	0.967556
49.052366	199.987020	6.990541	-0.015076	0.967542
49.116065	200.007821	6.995546	-0.015090	0.967619
49.267655	199.971455	7.000550	-0.015123	0.967662
49.460551	199.958078	7.005555	-0.015165	0.967768
49.554459	199.998328	7.010560	-0.015186	0.967895
49.529178	199.990765	7.015565	-0.015181	0.967870
49.683556	199.991342	7.020570	-0.015215	0.967973
49.675968	199.999743	7.025574	-0.015214	0.967985
49.681562	199.987328	7.030579	-0.015216	0.967971
49.587128	200.019918	7.035584	-0.015197	0.967965
49.729112	199.979055	7.040589	-0.015228	0.967995
49.709907	199.994864	7.045594	-0.015225	0.968011
49.672946	200.006571	7.050598	-0.015218	0.968009
49.744457	199.979775	7.055603	-0.015234	0.968015
49.839070	199.992152	7.060608	-0.015255	0.968099
49.874752	199.986213	7.065613	-0.015264	0.968115
49.887988	200.002978	7.070618	-0.015268	0.968153
49.830742	199.993772	7.075622	-0.015257	0.968105
49.857157	200.005245	7.080627	-0.015263	0.968143
49.770953	200.014258	7.085632	-0.015246	0.968105
49.822984	199.993146	7.090637	-0.015258	0.968108
49.971800	199.996879	7.095642	-0.015290	0.968213
49.901144	199.990943	7.100646	-0.015276	0.968161
49.938218	199.991024	7.105651	-0.015285	0.968188
49.908930	200.009988	7.110656	-0.015280	0.968202
49.902013	200.000824	7.115661	-0.015279	0.968186
49.974214	200.004506	7.120666	-0.015296	0.968241
49.930385	200.002978	7.125670	-0.015287	0.968214
49.935907	199.987152	7.130675	-0.015290	0.968195
49.964227	199.995252	7.135680	-0.015296	0.968229
49.936444	200.003485	7.140685	-0.015292	0.968227
49.982974	199.995510	7.145690	-0.015302	0.968248
49.901701	200.012299	7.150694	-0.015286	0.968225
49.910010	199.997456	7.155699	-0.015289	0.968210
49.850864	200.005919	7.160704	-0.015278	0.968188
49.892234	199.998118	7.165709	-0.015287	0.968206
49.988638	199.986687	7.170714	-0.015308	0.968252
49.999067	199.997861	7.175718	-0.015312	0.968280
50.056663	199.976017	7.180723	-0.015325	0.968285
50.043873	200.005151	7.185728	-0.015323	0.968326
50.056131	200.000156	7.190733	-0.015327	0.968329
49.979407	200.013037	7.195738	-0.015311	0.968303
49.940556	199.999812	7.200742	-0.015304	0.968260
49.891372	200.009445	7.205747	-0.015295	0.968247
49.899610	200.003180	7.210752	-0.015298	0.968245
50.073311	199.968437	7.215757	-0.015335	0.968305
50.026088	200.007151	7.220762	-0.015326	0.968339
50.005001	200.001663	7.225766	-0.015323	0.968320
50.028822	199.992572	7.230771	-0.015329	0.968324
50.024899	199.997918	7.235776	-0.015329	0.968333
50.091611	199.977589	7.240781	-0.015344	0.968346
50.023016	200.011942	7.245786	-0.015330	0.968360
50.014152	200.002238	7.250790	-0.015330	0.968342
50.000645	200.010484	7.255795	-0.015328	0.968349
49.978959	200.008237	7.260800	-0.015324	0.968335
50.003266	199.986517	7.265805	-0.015330	0.968319
50.048134	199.989192	7.270810	-0.015341	0.968355
50.085346	199.995805	7.275814	-0.015349	0.968392
50.052355	200.001579	7.280819	-0.015344	0.968383
50.041783	199.996203	7.285824	-0.015342	0.968371
49.979068	200.014119	7.290829	-0.015330	0.968362
50.055149	199.998054	7.295834	-0.015347	0.968389
50.050370	199.995687	7.300838	-0.015347	0.968385
50.147749	199.987995	7.305843	-0.015369	0.968438
50.144386	199.984465	7.310848	-0.015369	0.968433
50.100176	200.017930	7.315853	-0.015360	0.968461
50.053021	200.009048	7.320858	-0.015352	0.968420
50.101961	199.977444	7.325862	-0.015363	0.968404
50.129205	199.994486	7.330867	-0.015370	0.968452
50.326009	200.003767	7.335872	-0.015412	0.968596
50.179781	199.998608	7.340877	-0.015382	0.968497
50.211189	200.001482	7.345882	-0.015390	0.968525
50.237227	199.995819	7.350886	-0.015396	0.968535
50.223513	199.996385	7.355891	-0.015394	0.968530
50.122729	200.014343	7.360896	-0.015374	0.968497
50.248845	199.989358	7.365901	-0.015402	0.968542
50.151331	200.006925	7.370906	-0.015382	0.968510
50.260869	199.988412	7.375910	-0.015406	0.968554
50.215983	200.007261	7.380915	-0.015398	0.968558
50.143453	200.004038	7.385920	-0.015383	0.968509
50.174527	199.986701	7.390925	-0.015391	0.968505
50.278491	200.002493	7.395930	-0.015414	0.968600
50.293886	199.998046	7.400934	-0.015418	0.968605
50.097115	200.016709	7.405939	-0.015378	0.968511
50.021086	200.004831	7.410944	-0.015363	0.968447
50.077812	200.001967	7.415949	-0.015375	0.968482
50.044310	200.002344	7.420954	-0.015369	0.968464
50.178756	199.976292	7.425958	-0.015399	0.968512
50.185408	200.010776	7.430963	-0.015401	0.968574
50.269740	199.996728	7.435968	-0.015420	0.968609
50.178938	199.995304	7.440973	-0.015402	0.968551
50.151584	200.016093	7.445978	-0.015397	0.968570
50.130004	199.993502	7.450982	-0.015393	0.968523
50.218391	199.981299	7.455987	-0.015413	0.968563
50.204268	200.016633	7.460992	-0.015411	0.968613
50.084775	200.009388	7.465997	-0.015387	0.968528
50.172724	199.970774	7.471002	-0.015406	0.968526
50.191894	200.005935	7.476006	-0.015411	0.968597
50.193527	200.003182	7.481011	-0.015413	0.968597
50.233543	199.999375	7.486016	-0.015422	0.968620
50.099476	200.023740	7.491021	-0.015395	0.968575
50.073508	200.001256	7.496026	-0.015390	0.968526
50.161966	199.982636	7.501030	-0.015410	0.968556
50.134067	200.002760	7.506035	-0.015405	0.968573
50.053868	200.000531	7.511040	-0.015389	0.968521
50.166716	199.988542	7.516045	-0.015414	0.968578
50.138458	200.015202	7.521050	-0.015409	0.968605
50.160623	199.984960	7.526054	-0.015415	0.968574
50.132501	200.014809	7.531059	-0.015410	0.968606
50.213513	199.981217	7.536064	-0.015428	0.968608
50.221140	199.995598	7.541069	-0.015430	0.968639
50.197906	199.999726	7.546074	-0.015426	0.968634
50.265287	199.976032	7.551078	-0.015441	0.968642
50.205836	200.000784	7.556083	-0.015430	0.968646
50.242235	199.997116	7.561088	-0.015439	0.968667
50.327824	199.996473	7.566093	-0.015458	0.968724
50.256125	200.008540	7.571098	-0.015443	0.968700
50.177540	200.014992	7.576102	-0.015428	0.968663
50.334335	199.978761	7.581107	-0.015462	0.968709
50.283706	199.996595	7.586112	-0.015452	0.968708
50.167461	200.017323	7.591117	-0.015429	0.968669
50.298849	199.988241	7.596122	-0.015457	0.968710
50.361281	199.988724	7.601126	-0.015471	0.968754
50.161985	200.018281	7.606131	-0.015431	0.968676
50.208930	199.992742	7.611136	-0.015441	0.968669
50.302114	199.996150	7.616141	-0.015462	0.968737
50.209998	200.006020	7.621146	-0.015444	0.968696
50.155262	200.002906	7.626150	-0.015433	0.968659
50.160742	200.001101	7.631155	-0.015435	0.968663
50.196050	199.992271	7.636160	-0.015444	0.968675
50.168395	200.007187	7.641165	-0.015439	0.968684
50.067654	200.021928	7.646170	-0.015419	0.968645
50.280438	199.957798	7.651174	-0.015464	0.968683
50.219470	200.005482	7.656179	-0.015452	0.968723
50.164437	200.002783	7.661184	-0.015442	0.968686
50.306928	199.990292	7.666189	-0.015473	0.968761
50.290295	200.006689	7.671194	-0.015470	0.968779
50.264665	200.000530	7.676198	-0.015466	0.968756
50.193374	200.005205	7.681203	-0.015452	0.968721
50.229518	200.001002	7.686208	-0.015461	0.968740
50.240044	199.989926	7.691213	-0.015464	0.968732
50.281338	200.001434	7.696218	-0.015473	0.968780
50.279129	199.996845	7.701222	-0.015474	0.968775
50.144679	200.015756	7.706227	-0.015447	0.968721
50.212112	199.980686	7.711232	-0.015462	0.968712
50.185232	200.008806	7.716237	-0.015457	0.968742
50.218115	199.996880	7.721242	-0.015465	0.968747
50.201244	200.002166	7.726246	-0.015462	0.968748
50.271947	200.002740	7.731251	-0.015478	0.968797
50.334655	199.980351	7.736256	-0.015492	0.968805
50.466835	199.997759	7.741261	-0.015521	0.968921
50.615260	199.973878	7.746266	-0.015553	0.968981
50.543601	199.999348	7.751270	-0.015539	0.968979
50.418099	200.025786	7.756275	-0.015514	0.968943
50.444005	199.993677	7.761280	-0.015520	0.968912
50.409736	200.015011	7.766285	-0.015514	0.968926
50.481764	199.992829	7.771290	-0.015530	0.968941
50.514175	199.990192	7.776294	-0.015538	0.968960
50.477430	200.005251	7.781299	-0.015531	0.968964
50.412167	200.004135	7.786304	-0.015519	0.968923
50.455478	199.996490	7.791309	-0.015529	0.968942
50.353864	200.010251	7.796314	-0.015508	0.968901
50.498236	199.975718	7.801318	-0.015540	0.968942
50.723013	199.953108	7.806323	-0.015588	0.969054
50.719238	199.999315	7.811328	-0.015588	0.969128
50.712193	200.014881	7.816333	-0.015588	0.969151
50.637385	199.999332	7.821338	-0.015573	0.969081
50.763101	199.980184	7.826342	-0.015600	0.969135
50.575569	200.005591	7.831347	-0.015562	0.969057
50.683133	200.003584	7.836352	-0.015585	0.969126
50.683580	199.998213	7.841357	-0.015587	0.969121
50.662415	200.001845	7.846362	-0.015583	0.969116
50.657516	200.009804	7.851366	-0.015583	0.969129
50.730170	199.988944	7.856371	-0.015599	0.969145
50.696196	199.998504	7.861376	-0.015593	0.969142
50.601916	200.002599	7.866381	-0.015574	0.969091
50.789317	199.983097	7.871386	-0.015615	0.969183
50.702141	200.015345	7.876390	-0.015597	0.969181
50.607973	199.999919	7.881395	-0.015579	0.969099
50.595332	200.018638	7.886400	-0.015577	0.969124
50.666023	199.982442	7.891405	-0.015593	0.969115
50.599665	200.010436	7.896410	-0.015580	0.969120
50.705135	199.985279	7.901414	-0.015603	0.969150
50.586953	200.013567	7.906419	-0.015579	0.969122
50.532634	200.004274	7.911424	-0.015569	0.969076
50.711282	199.979415	7.916429	-0.015607	0.969154
50.670552	200.010401	7.921434	-0.015600	0.969180
50.680703	200.003606	7.926438	-0.015603	0.969179
50.693579	199.988920	7.931443	-0.015606	0.969167
50.707725	199.993441	7.936448	-0.015610	0.969186
50.768682	199.995717	7.941453	-0.015624	0.969232
50.759058	199.999836	7.946458	-0.015623	0.969235
50.820328	199.996429	7.951462	-0.015637	0.969272
50.734123	200.006543	7.956467	-0.015620	0.969236
50.748610	200.005714	7.961472	-0.015624	0.969247
50.734432	200.000661	7.966477	-0.015622	0.969233
50.634005	200.002965	7.971482	-0.015602	0.969175
50.787979	199.976747	7.976486	-0.015635	0.969235
50.767688	200.006487	7.981491	-0.015632	0.969272
50.834966	199.975560	7.986496	-0.015647	0.969270
50.857415	200.001362	7.991501	-0.015653	0.969328
50.896565	199.993687	7.996506	-0.015662	0.969344
50.854252	200.001559	8.001510	-0.015654	0.969332
50.751756	200.015322	8.006515	-0.015633	0.969291
50.758564	200.006684	8.011520	-0.015636	0.969285
50.780184	200.001193	8.016525	-0.015641	0.969293
50.727475	200.006441	8.021530	-0.015631	0.969271
50.712484	199.996700	8.026534	-0.015629	0.969249
50.712981	199.999277	8.031539	-0.015630	0.969256
50.698140	200.009101	8.036544	-0.015628	0.969265
50.779014	199.986339	8.041549	-0.015646	0.969284
50.805529	199.977930	8.046554	-0.015653	0.969291
50.693816	200.018153	8.051558	-0.015630	0.969286
50.790076	199.980795	8.056563	-0.015651	0.969291
50.917342	199.983950	8.061568	-0.015679	0.969381
50.833202	200.004539	8.066573	-0.015662	0.969363
50.730139	200.017843	8.071578	-0.015642	0.969320
50.816182	199.990626	8.076582	-0.015661	0.969336
50.756716	200.006333	8.081587	-0.015649	0.969325
50.806889	199.982042	8.086592	-0.015661	0.969322
50.811553	200.009002	8.091597	-0.015663	0.969371
50.801094	199.994324	8.096602	-0.015661	0.969344
50.750101	200.011469	8.101606	-0.015652	0.969341
50.655419	200.018769	8.106611	-0.015633	0.969295
50.791473	199.965532	8.111616	-0.015662	0.969301
50.798620	200.015245	8.116621	-0.015665	0.969387
50.781703	199.995953	8.121626	-0.015662	0.969349
50.795944	199.996453	8.126630	-0.015666	0.969362
50.789801	199.996752	8.131635	-0.015666	0.969361
50.766418	200.004529	8.136640	-0.015662	0.969362
50.714824	199.995059	8.141645	-0.015652	0.969317
50.808345	199.997130	8.146650	-0.015673	0.969383
50.842864	200.014602	8.151654	-0.015681	0.969436
50.801724	199.988792	8.156659	-0.015673	0.969372
50.832292	199.997681	8.161664	-0.015681	0.969408
50.935590	199.994959	8.166669	-0.015704	0.969473
50.874965	199.997803	8.171674	-0.015692	0.969442
50.926027	199.984270	8.176678	-0.015703	0.969456
51.010430	200.005837	8.181683	-0.015722	0.969548
50.891971	200.007612	8.186688	-0.015698	0.969477
50.937632	200.003943	8.191693	-0.015709	0.969504
50.953956	199.991104	8.196698	-0.015713	0.969497
50.946218	199.997854	8.201702	-0.015713	0.969506
50.937581	199.993506	8.206707	-0.015712	0.969496
50.875059	200.003858	8.211712	-0.015700	0.969476
50.869020	200.010757	8.216717	-0.015699	0.969486
50.824009	200.002600	8.221722	-0.015691	0.969447
50.830199	200.010299	8.226726	-0.015693	0.969466
50.811793	200.001250	8.231731	-0.015690	0.969443
50.777710	199.985125	8.236736	-0.015684	0.969398
50.874312	199.990183	8.241741	-0.015705	0.969472
50.977699	199.992004	8.246746	-0.015728	0.969544
50.956052	200.009163	8.251750	-0.015725	0.969560
51.045673	199.974300	8.256755	-0.015744	0.969565
51.011999	200.003074	8.261760	-0.015738	0.969592
50.989336	200.009870	8.266765	-0.015735	0.969592
50.907397	200.020216	8.271770	-0.015718	0.969558
50.981872	199.980124	8.276774	-0.015735	0.969546
50.970452	200.006720	8.281779	-0.015733	0.969584
50.976109	199.983491	8.286784	-0.015736	0.969553
50.931560	200.013768	8.291789	-0.015727	0.969576
50.880376	200.011948	8.296794	-0.015717	0.969543
50.958639	199.992413	8.301798	-0.015735	0.969565
50.890879	199.995194	8.306803	-0.015722	0.969529
50.843674	200.021085	8.311808	-0.015713	0.969543
50.995258	199.971939	8.316813	-0.015746	0.969565
50.907449	200.011085	8.321818	-0.015728	0.969574
50.986166	199.977737	8.326822	-0.015746	0.969575
50.937010	200.012637	8.331827	-0.015736	0.969602
50.879412	200.014645	8.336832	-0.015725	0.969571
50.845718	200.003967	8.341837	-0.015719	0.969535
50.881178	199.994149	8.346842	-0.015728	0.969545
50.887014	199.996138	8.351846	-0.015730	0.969555
50.828561	200.000560	8.356851	-0.015718	0.969528
50.894128	199.995566	8.361856	-0.015733	0.969565
50.793184	200.010809	8.366861	-0.015713	0.969527
50.843262	200.000923	8.371866	-0.015724	0.969547
50.888567	199.995038	8.376870	-0.015735	0.969570
50.805116	200.003684	8.381875	-0.015718	0.969533
50.828347	199.987407	8.386880	-0.015724	0.969525
50.820701	200.019804	8.391885	-0.015724	0.969574
50.886107	199.975957	8.396890	-0.015738	0.969550
50.909642	199.987258	8.401894	-0.015744	0.969586
50.933824	199.994163	8.406899	-0.015750	0.969615
50.820373	200.020180	8.411904	-0.015728	0.969587
50.801184	200.006527	8.416909	-0.015724	0.969556
50.780559	200.015991	8.421914	-0.015721	0.969560
50.872875	199.974623	8.426918	-0.015741	0.969557
50.824837	200.004493	8.431923	-0.015732	0.969577
50.885886	199.990753	8.436928	-0.015746	0.969597
50.777158	200.023565	8.441933	-0.015724	0.969582
50.802486	199.995417	8.446938	-0.015731	0.969557
50.820100	199.985942	8.451942	-0.015735	0.969556
50.791827	200.010067	8.456947	-0.015730	0.969579
50.889405	199.982165	8.461952	-0.015752	0.969601
50.912265	199.989754	8.466957	-0.015758	0.969630
50.754728	200.028025	8.471962	-0.015726	0.969593
50.871192	199.979333	8.476966	-0.015751	0.969594
50.693603	200.033504	8.481971	-0.015715	0.969568
50.765572	199.995018	8.486976	-0.015731	0.969557
50.835381	199.978564	8.491981	-0.015746	0.969578
50.887388	199.969520	8.496986	-0.015758	0.969600
50.907228	200.002150	8.501990	-0.015763	0.969668
50.920794	199.993823	8.506995	-0.015767	0.969666
50.938819	199.996139	8.512000	-0.015772	0.969685
50.926209	200.006095	8.517005	-0.015770	0.969695
50.975923	200.008169	8.522010	-0.015782	0.969734
50.878960	199.988284	8.527014	-0.015762	0.969643
50.887827	199.996279	8.532019	-0.015765	0.969664
50.832581	200.005156	8.537024	-0.015755	0.969646
50.878613	200.008475	8.542029	-0.015765	0.969684
50.905045	199.989818	8.547034	-0.015772	0.969674
51.080602	199.996806	8.552038	-0.015810	0.969801
50.991670	199.997431	8.557043	-0.015792	0.969748
50.987595	200.005160	8.562048	-0.015792	0.969760
51.067635	199.994407	8.567053	-0.015810	0.969798
51.124880	199.981177	8.572058	-0.015823	0.969817
51.087006	200.014463	8.577062	-0.015816	0.969848
51.132995	199.989406	8.582067	-0.015827	0.969841
51.136075	200.006393	8.587072	-0.015828	0.969873
51.090281	199.992341	8.592077	-0.015820	0.969824
51.196676	199.987990	8.597082	-0.015843	0.969889
51.113259	200.010445	8.602086	-0.015827	0.969874
51.146221	199.994603	8.607091	-0.015834	0.969873
51.108218	200.010912	8.612096	-0.015827	0.969877
51.067069	199.994733	8.617101	-0.015820	0.969828
51.107781	200.003116	8.622106	-0.015829	0.969871
51.212438	199.973186	8.627110	-0.015852	0.969893
51.275124	199.980790	8.632115	-0.015866	0.969949
51.143485	200.018501	8.637120	-0.015840	0.969927
51.045483	200.031262	8.642125	-0.015820	0.969887
51.063063	200.000932	8.647130	-0.015825	0.969853
51.177430	199.970218	8.652134	-0.015850	0.969881
51.170635	199.985547	8.657139	-0.015849	0.969904
51.102539	200.012376	8.662144	-0.015836	0.969906
51.122333	200.001280	8.667149	-0.015841	0.969904
51.200108	199.983031	8.672154	-0.015859	0.969928
51.095394	200.013574	8.677158	-0.015838	0.969912
51.198893	199.982145	8.682163	-0.015860	0.969932
51.050778	200.023629	8.687168	-0.015830	0.969905
51.196732	199.982627	8.692173	-0.015862	0.969937
51.185735	200.003548	8.697178	-0.015860	0.969966
51.276414	199.984306	8.702182	-0.015881	0.969997
51.254021	200.011962	8.707187	-0.015877	0.970030
51.259710	199.984872	8.712192	-0.015879	0.969993
51.255333	199.998928	8.717197	-0.015879	0.970016
51.293312	199.991686	8.722202	-0.015888	0.970032
51.315383	199.999752	8.727206	-0.015894	0.970062
51.340111	200.005511	8.732211	-0.015900	0.970090
51.253494	200.010307	8.737216	-0.015883	0.970045
51.198880	200.007011	8.742221	-0.015872	0.970007
51.154816	199.990482	8.747226	-0.015864	0.969956
51.309340	200.001587	8.752230	-0.015897	0.970076
51.197476	199.992788	8.757235	-0.015875	0.969993
51.261387	199.992514	8.762240	-0.015889	0.970037
51.186558	200.010208	8.767245	-0.015874	0.970020
51.210289	200.016518	8.772250	-0.015880	0.970048
51.184690	199.995705	8.777254	-0.015876	0.970001
51.130275	200.002125	8.782259	-0.015866	0.969980
51.197271	199.994300	8.787264	-0.015881	0.970013
51.238294	199.992372	8.792269	-0.015890	0.970039
51.189036	200.000394	8.797274	-0.015881	0.970024
51.153333	199.999773	8.802278	-0.015874	0.970003
51.164955	200.005721	8.807283	-0.015878	0.970023
51.139374	199.996962	8.812288	-0.015873	0.969995
51.261834	200.007278	8.817293	-0.015900	0.970093
51.280422	200.002528	8.822298	-0.015905	0.970101
51.291521	199.986093	8.827302	-0.015908	0.970085
51.324914	200.005278	8.832307	-0.015916	0.970140
51.334769	199.979598	8.837312	-0.015919	0.970108
51.317305	200.005211	8.842317	-0.015917	0.970141
51.316352	200.008674	8.847322	-0.015917	0.970149
51.272769	200.004204	8.852326	-0.015909	0.970116
51.183456	200.003791	8.857331	-0.015891	0.970061
51.292939	199.989239	8.862336	-0.015915	0.970112
51.146224	200.007850	8.867341	-0.015886	0.970050
51.153243	199.990952	8.872346	-0.015888	0.970031
51.187770	200.011792	8.877350	-0.015896	0.970089
51.284007	199.967949	8.882355	-0.015918	0.970084
51.258253	200.012723	8.887360	-0.015913	0.970142
51.276511	200.001904	8.892365	-0.015918	0.970139
51.368514	200.004235	8.897370	-0.015938	0.970205
51.357502	199.991244	8.902374	-0.015937	0.970180
51.348875	200.006581	8.907379	-0.015936	0.970202
51.454420	199.969651	8.912384	-0.015959	0.970214
51.451084	199.962264	8.917389	-0.015960	0.970204

51.337876	199.793231	8.922394	-0.015937	0.969866
51.246282	199.605381	8.927398	-0.015918	0.969512
51.313759	199.370026	8.932403	-0.015934	0.969185
51.334543	199.195258	8.937408	-0.015939	0.968924
51.386982	198.975510	8.942413	-0.015951	0.968612
51.390152	198.792841	8.947418	-0.015952	0.968327
51.386409	198.583894	8.952422	-0.015953	0.967996
51.432842	198.383808	8.957427	-0.015963	0.967710
51.283962	198.191344	8.962432	-0.015933	0.967312
51.265096	197.989383	8.967437	-0.015930	0.966981
51.335505	197.773587	8.972442	-0.015946	0.966686
51.447573	197.580739	8.977446	-0.015970	0.966455
51.389726	197.392209	8.982451	-0.015959	0.966121
51.478452	197.170134	8.987456	-0.015979	0.965827
51.261578	197.007187	8.992461	-0.015934	0.965431
51.329667	196.780676	8.997466	-0.015949	0.965117
51.325862	196.575678	9.002470	-0.015949	0.964791
51.419605	196.380749	9.007475	-0.015970	0.964543
51.363896	196.186583	9.012480	-0.015959	0.964201
51.264379	196.017439	9.017485	-0.015939	0.963870
51.357206	195.760632	9.022490	-0.015960	0.963523
51.267347	195.602042	9.027494	-0.015942	0.963215
51.309978	195.376673	9.032499	-0.015952	0.962885
51.274143	195.165297	9.037504	-0.015945	0.962527
51.240929	195.008366	9.042509	-0.015939	0.962258
51.362713	194.765617	9.047514	-0.015966	0.961952
51.216021	194.607687	9.052518	-0.015936	0.961607
51.212397	194.383506	9.057523	-0.015936	0.961249
51.166672	194.186176	9.062528	-0.015927	0.960907
51.138740	193.990534	9.067533	-0.015922	0.960579
51.394436	193.740086	9.072538	-0.015977	0.960347
51.379642	193.577873	9.077542	-0.015975	0.960080
51.318829	193.387358	9.082547	-0.015963	0.959739
51.259686	193.195755	9.087552	-0.015951	0.959396
51.421978	192.967669	9.092557	-0.015986	0.959139
51.472496	192.774616	9.097562	-0.015998	0.958865
51.326800	192.599031	9.102566	-0.015968	0.958492
51.268885	192.384647	9.107571	-0.015957	0.958113
51.268826	192.190309	9.112576	-0.015958	0.957804
51.358074	191.948896	9.117581	-0.015978	0.957478
51.265582	191.810372	9.122586	-0.015959	0.957198
51.260110	191.578933	9.127590	-0.015959	0.956825
51.229870	191.383982	9.132595	-0.015954	0.956495
51.229953	191.174383	9.137600	-0.015955	0.956161
51.271649	190.981652	9.142605	-0.015964	0.955882
51.157332	190.796841	9.147610	-0.015941	0.955513
51.268940	190.551452	9.152614	-0.015966	0.955193
51.303862	190.362175	9.157619	-0.015974	0.954915
51.243222	190.203213	9.162624	-0.015962	0.954622
51.288086	189.963903	9.167629	-0.015972	0.954269
51.246847	189.816807	9.172634	-0.015965	0.954008
51.220853	189.576216	9.177638	-0.015960	0.953606
51.244873	189.380277	9.182643	-0.015966	0.953309
51.205423	189.174002	9.187648	-0.015959	0.952953
51.205586	188.990666	9.192653	-0.015960	0.952660
51.179305	188.771035	9.197658	-0.015955	0.952291
51.003146	188.611972	9.202662	-0.015919	0.951922
51.008103	188.372948	9.207667	-0.015921	0.951542
51.006760	188.163893	9.212672	-0.015922	0.951206
51.082395	187.980401	9.217677	-0.015939	0.950962
51.039828	187.803288	9.222682	-0.015931	0.950651
51.131758	187.539728	9.227686	-0.015951	0.950288
51.118746	187.367496	9.232691	-0.015949	0.950004
51.206235	187.184399	9.237696	-0.015968	0.949768
51.080409	186.990362	9.242701	-0.015943	0.949374
51.160004	186.763408	9.247706	-0.015961	0.949061
51.090842	186.575269	9.252710	-0.015947	0.948714
51.156296	186.371462	9.257715	-0.015962	0.948430
51.078453	186.193530	9.262720	-0.015946	0.948093
51.043275	185.987502	9.267725	-0.015940	0.947739
51.065702	185.766031	9.272730	-0.015946	0.947397
51.157392	185.553365	9.277734	-0.015966	0.947115
51.049673	185.396342	9.282739	-0.015944	0.946792
51.022140	185.183575	9.287744	-0.015939	0.946432
51.018390	184.975891	9.292749	-0.015939	0.946095
51.015713	184.779413	9.297754	-0.015940	0.945777
51.052207	184.565004	9.302758	-0.015948	0.945455
51.045959	184.369963	9.307763	-0.015948	0.945137
51.096730	184.160684	9.312768	-0.015960	0.944833
51.054419	183.994538	9.317773	-0.015952	0.944537
51.145673	183.758896	9.322778	-0.015972	0.944217
50.988510	183.591070	9.327782	-0.015940	0.943843
51.024166	183.374387	9.332787	-0.015948	0.943516
51.043012	183.164878	9.337792	-0.015953	0.943190
51.178293	182.967118	9.342797	-0.015982	0.942960
51.178718	182.769838	9.347802	-0.015983	0.942642
51.095886	182.578609	9.352806	-0.015967	0.942278
51.168066	182.365942	9.357811	-0.015983	0.941982
51.119102	182.174083	9.362816	-0.015974	0.941639
50.973873	181.982943	9.367821	-0.015944	0.941234
50.925954	181.807349	9.372826	-0.015935	0.940918
50.864775	181.568562	9.377830	-0.015923	0.940490
50.959799	181.342153	9.382835	-0.015944	0.940186
50.996466	181.165232	9.387840	-0.015953	0.939924
51.082357	180.961999	9.392845	-0.015972	0.939652
50.934129	180.804349	9.397850	-0.015941	0.939298
50.832166	180.591229	9.402854	-0.015921	0.938885
50.883964	180.356950	9.407859	-0.015933	0.938538
50.945931	180.156381	9.412864	-0.015947	0.938254
50.925161	179.981097	9.417869	-0.015943	0.937956
50.853840	179.783887	9.422874	-0.015929	0.937588
50.835187	179.571868	9.427878	-0.015926	0.937231
50.878150	179.369311	9.432883	-0.015936	0.936930
50.864451	179.151299	9.437888	-0.015934	0.936566
50.866033	178.969081	9.442893	-0.015936	0.936271
50.985210	178.761822	9.447898	-0.015962	0.936013
50.963742	178.571063	9.452902	-0.015958	0.935688
50.898528	178.375859	9.457907	-0.015945	0.935327
50.925948	178.158484	9.462912	-0.015952	0.934991
50.982803	177.964435	9.467917	-0.015965	0.934713
50.924760	177.780492	9.472922	-0.015954	0.934375
50.948061	177.572532	9.477926	-0.015959	0.934051
50.936630	177.359968	9.482931	-0.015958	0.933696
50.963600	177.171457	9.487936	-0.015965	0.933407
50.835689	176.993185	9.492941	-0.015939	0.933031
50.953794	176.760390	9.497946	-0.015964	0.932729
50.846511	176.584420	9.502950	-0.015943	0.932370
50.912154	176.351897	9.507955	-0.015958	0.932034
50.938680	176.153569	9.512960	-0.015964	0.931727
50.806192	175.998508	9.517965	-0.015937	0.931385
50.807529	175.750478	9.522970	-0.015938	0.930980
50.784535	175.573541	9.527974	-0.015935	0.930675
50.840952	175.364064	9.532979	-0.015947	0.930370
50.757623	175.171565	9.537984	-0.015931	0.929999
50.752559	174.974054	9.542989	-0.015931	0.929672
50.687469	174.782624	9.547994	-0.015918	0.929315
50.785028	174.554787	9.552998	-0.015939	0.929006
50.722158	174.363460	9.558003	-0.015927	0.928650
50.707089	174.172981	9.563008	-0.015925	0.928328
50.691701	173.976388	9.568013	-0.015923	0.927995
50.758337	173.748511	9.573018	-0.015938	0.927665
50.618401	173.586464	9.578022	-0.015909	0.927305
50.616565	173.359426	9.583027	-0.015910	0.926931
50.713432	173.152002	9.588032	-0.015931	0.926655
50.759673	172.964561	9.593037	-0.015942	0.926378
50.659198	172.778297	9.598042	-0.015921	0.926004
50.652123	172.556568	9.603046	-0.015921	0.925634
50.736847	172.348808	9.608051	-0.015940	0.925349
50.712251	172.168474	9.613056	-0.015935	0.925036
50.701081	171.973557	9.618061	-0.015934	0.924707
50.644359	171.772712	9.623066	-0.015923	0.924338
50.575314	171.582911	9.628070	-0.015909	0.923979
50.612598	171.348634	9.633075	-0.015918	0.923617
50.625246	171.177669	9.638080	-0.015922	0.923344
50.641024	170.938310	9.643085	-0.015926	0.922959
50.602498	170.778071	9.648090	-0.015919	0.922669
50.696157	170.536711	9.653094	-0.015940	0.922333
50.796616	170.361871	9.658099	-0.015962	0.922113
50.727926	170.177313	9.663104	-0.015948	0.921762
50.726922	169.965642	9.668109	-0.015949	0.921411
50.738127	169.751199	9.673114	-0.015952	0.921064
50.759311	169.557174	9.678118	-0.015958	0.920757
50.673371	169.372970	9.683123	-0.015940	0.920394
50.665581	169.152599	9.688128	-0.015940	0.920024
50.752641	168.969335	9.693133	-0.015959	0.919780
50.724897	168.765471	9.698138	-0.015954	0.919423
50.666742	168.565593	9.703142	-0.015943	0.919052
50.520612	168.383523	9.708147	-0.015913	0.918652
50.632868	168.145365	9.713152	-0.015938	0.918332
50.682947	167.950637	9.718157	-0.015949	0.918043
50.588630	167.773829	9.723162	-0.015930	0.917686
50.558444	167.572002	9.728166	-0.015925	0.917330
50.526602	167.367347	9.733171	-0.015919	0.916969
50.491847	167.167309	9.738176	-0.015913	0.916613
50.396603	166.965593	9.743181	-0.015894	0.916212
50.493149	166.748493	9.748186	-0.015915	0.915917
50.507213	166.557083	9.753190	-0.015919	0.915608
50.472273	166.355205	9.758195	-0.015912	0.915248
50.397239	166.161798	9.763200	-0.015897	0.914875
50.450442	165.949276	9.768205	-0.015910	0.914558
50.482497	165.776492	9.773210	-0.015917	0.914292
50.427641	165.576145	9.778214	-0.015907	0.913921
50.394030	165.367217	9.783219	-0.015901	0.913549
50.377482	165.146955	9.788224	-0.015898	0.913170
50.441716	164.951522	9.793229	-0.015912	0.912888
50.395822	164.762047	9.798234	-0.015904	0.912541
50.425952	164.553264	9.803238	-0.015911	0.912213
50.384912	164.354891	9.808243	-0.015903	0.911853
50.364737	164.163765	9.813248	-0.015900	0.911520
50.356034	163.964955	9.818253	-0.015899	0.911182
50.358837	163.753644	9.823258	-0.015901	0.910830
50.358836	163.554179	9.828262	-0.015902	0.910497
50.323229	163.371276	9.833267	-0.015895	0.910166
50.383450	163.141683	9.838272	-0.015909	0.909823
50.424204	162.940102	9.843277	-0.015918	0.909513
50.486807	162.753382	9.848282	-0.015932	0.909244
50.347307	162.589967	9.853286	-0.015904	0.908875
50.336003	162.353561	9.858291	-0.015902	0.908470
50.313112	162.154179	9.863296	-0.015899	0.908120
50.329414	161.955222	9.868301	-0.015903	0.907797
50.353239	161.745772	9.873306	-0.015909	0.907462
50.374776	161.552101	9.878310	-0.015914	0.907152
50.405341	161.355332	9.883315	-0.015922	0.906842
50.250529	161.185423	9.888320	-0.015890	0.906451
50.325131	160.935779	9.893325	-0.015907	0.906082
50.301146	160.759771	9.898330	-0.015903	0.905769
50.308043	160.539947	9.903334	-0.015905	0.905404
50.304709	160.370525	9.908339	-0.015905	0.905117
50.265111	160.166938	9.913344	-0.015898	0.904747
50.259387	159.950876	9.918349	-0.015898	0.904379
50.212826	159.755021	9.923354	-0.015889	0.904017
50.185252	159.561400	9.928358	-0.015884	0.903672
50.213586	159.346019	9.933363	-0.015891	0.903328
50.237329	159.155401	9.938368	-0.015897	0.903023
50.185326	158.971651	9.943373	-0.015887	0.902677
50.235860	158.736943	9.948378	-0.015898	0.902315
50.211191	158.560422	9.953382	-0.015894	0.902001
50.170022	158.363121	9.958387	-0.015886	0.901639
50.098697	158.152130	9.963392	-0.015872	0.901233
50.211419	157.947547	9.968397	-0.015897	0.900965
50.245547	157.734942	9.973402	-0.015905	0.900629
50.138162	157.573862	9.978406	-0.015884	0.900282
50.122536	157.353392	9.983411	-0.015881	0.899898
50.190134	157.132080	9.988416	-0.015896	0.899570
50.052502	156.984895	9.993421	-0.015868	0.899226
50.173562	156.747391	9.998426	-0.015895	0.898907
50.131951	156.539600	10.003430	-0.015887	0.898526
50.174082	156.340457	10.008435	-0.015897	0.898217
50.112181	156.166959	10.013440	-0.015885	0.897880
50.076485	155.956656	10.018445	-0.015878	0.897498
50.091722	155.750295	10.023450	-0.015882	0.897159
50.157935	155.540322	10.028454	-0.015897	0.896848
50.141100	155.342130	10.033459	-0.015895	0.896500
50.130606	155.155083	10.038464	-0.015893	0.896175
50.042955	154.954265	10.043469	-0.015876	0.895772
50.050298	154.759717	10.048474	-0.015878	0.895446
50.089744	154.543792	10.053478	-0.015887	0.895106
49.941047	154.372551	10.058483	-0.015857	0.894711
49.938234	154.155168	10.063488	-0.015857	0.894339
49.893629	153.956942	10.068493	-0.015849	0.893970
49.969674	153.751416	10.073498	-0.015866	0.893673
49.874271	153.558440	10.078502	-0.015847	0.893277
49.901578	153.337685	10.083507	-0.015854	0.892919
49.857606	153.162463	10.088512	-0.015845	0.892590
49.832770	152.954452	10.093517	-0.015841	0.892217
49.943668	152.729986	10.098522	-0.015865	0.891911
49.869727	152.557837	10.103526	-0.015851	0.891566
49.875580	152.338825	10.108531	-0.015853	0.891195
49.933468	152.142792	10.113536	-0.015866	0.890901
49.862956	151.973454	10.118541	-0.015852	0.890562
49.786585	151.740935	10.123546	-0.015837	0.890110
49.947842	151.515252	10.128550	-0.015872	0.889837
49.960447	151.340362	10.133555	-0.015875	0.889547
49.915936	151.177725	10.138560	-0.015867	0.889237
49.770542	150.977568	10.143565	-0.015837	0.888792
49.848112	150.721785	10.148570	-0.015855	0.888407
49.942335	150.533963	10.153574	-0.015875	0.888152
49.833246	150.354598	10.158579	-0.015853	0.887768
49.797276	150.151380	10.163584	-0.015847	0.887393
49.813464	149.927013	10.168589	-0.015851	0.887019
49.861041	149.761167	10.173594	-0.015862	0.886768
49.830598	149.536424	10.178598	-0.015857	0.886360
49.740516	149.367545	10.183603	-0.015839	0.886007
49.857465	149.119553	10.188608	-0.015864	0.885662
49.803254	148.965685	10.193613	-0.015854	0.885360
49.887142	148.735181	10.198618	-0.015872	0.885022
49.824285	148.542616	10.203622	-0.015860	0.884646
49.819140	148.345761	10.208627	-0.015860	0.884304
49.759881	148.154557	10.213632	-0.015848	0.883932
49.767310	147.955082	10.218637	-0.015851	0.883594
49.843193	147.730951	10.223642	-0.015868	0.883261
49.656848	147.573463	10.228646	-0.015829	0.882858
49.657817	147.334440	10.233651	-0.015831	0.882445
49.752791	147.130508	10.238656	-0.015852	0.882160
49.744188	146.949216	10.243661	-0.015851	0.881841
49.642751	146.756384	10.248666	-0.015830	0.881436
49.682962	146.533894	10.253670	-0.015840	0.881080
49.630988	146.344175	10.258675	-0.015830	0.880715
49.646662	146.147596	10.263680	-0.015834	0.880386
49.665329	145.949290	10.268685	-0.015839	0.880056
49.696609	145.726107	10.273690	-0.015846	0.879692
49.743432	145.548547	10.278694	-0.015857	0.879418
49.678896	145.347645	10.283699	-0.015844	0.879024
49.730041	145.135225	10.288704	-0.015856	0.878692
49.591389	144.957641	10.293709	-0.015828	0.878286
49.622311	144.733462	10.298714	-0.015835	0.877918
49.578883	144.571661	10.303718	-0.015827	0.877607
49.528394	144.336847	10.308723	-0.015818	0.877163
49.545586	144.128663	10.313728	-0.015822	0.876813
49.667671	143.936054	10.318733	-0.015849	0.876566
49.591375	143.745912	10.323738	-0.015834	0.876181
49.590997	143.540116	10.328742	-0.015834	0.875823
49.639866	143.319491	10.333747	-0.015846	0.875474
49.677062	143.147392	10.338752	-0.015854	0.875201
49.687610	142.947371	10.343757	-0.015858	0.874860
49.661393	142.728245	10.348762	-0.015853	0.874460
49.689107	142.543456	10.353766	-0.015860	0.874158
49.592065	142.367143	10.358771	-0.015840	0.873781
49.623191	142.128796	10.363776	-0.015848	0.873388
49.557235	141.952573	10.368781	-0.015835	0.873033
49.570133	141.743794	10.373786	-0.015839	0.872678
49.553287	141.532539	10.378790	-0.015836	0.872297
49.523554	141.354362	10.383795	-0.015831	0.871965
49.474909	141.131489	10.388800	-0.015821	0.871540
49.493814	140.944178	10.393805	-0.015826	0.871226
49.611603	140.721364	10.398810	-0.015852	0.870921
49.558135	140.541958	10.403814	-0.015842	0.870569
49.583022	140.336690	10.408819	-0.015848	0.870227
49.547520	140.135349	10.413824	-0.015841	0.869849
49.545849	139.953660	10.418829	-0.015842	0.869530
49.538896	139.731752	10.423834	-0.015841	0.869136
49.498083	139.549946	10.428838	-0.015834	0.868788
49.539612	139.320017	10.433843	-0.015843	0.868414
49.576744	139.141040	10.438848	-0.015852	0.868127
49.476772	138.938119	10.443853	-0.015832	0.867699
49.467237	138.742996	10.448858	-0.015831	0.867350
49.509751	138.537565	10.453862	-0.015841	0.867019
49.322190	138.372773	10.458867	-0.015802	0.866595
49.360580	138.121486	10.463872	-0.015811	0.866180
49.293450	137.941563	10.468877	-0.015798	0.865815
49.415851	137.720883	10.473882	-0.015825	0.865515
49.369265	137.538997	10.478886	-0.015816	0.865161
49.310746	137.337733	10.483891	-0.015805	0.864765
49.378980	137.117702	10.488896	-0.015820	0.864426
49.432062	136.946971	10.493901	-0.015832	0.864164
49.423857	136.749041	10.498906	-0.015831	0.863809
49.356742	136.542246	10.503910	-0.015818	0.863396
49.281757	136.333465	10.508915	-0.015803	0.862973
49.213936	136.161415	10.513920	-0.015790	0.862620
49.284239	135.911215	10.518925	-0.015806	0.862228
49.266317	135.746115	10.523930	-0.015803	0.861924
49.181827	135.549213	10.528934	-0.015786	0.861515
49.226887	135.323195	10.533939	-0.015797	0.861147
49.259316	135.129442	10.538944	-0.015804	0.860828
49.273449	134.931887	10.543949	-0.015808	0.860489
49.187384	134.751111	10.548954	-0.015791	0.860107
49.156445	134.548314	10.553958	-0.015786	0.859725
49.187005	134.308255	10.558963	-0.015793	0.859321
49.229611	134.127306	10.563968	-0.015803	0.859031
49.184986	133.950518	10.568973	-0.015794	0.858686
49.185966	133.736833	10.573978	-0.015796	0.858307
49.159491	133.532754	10.578982	-0.015791	0.857925
49.141290	133.338112	10.583987	-0.015788	0.857566
49.235549	133.106463	10.588992	-0.015809	0.857223
49.149166	132.954809	10.593997	-0.015792	0.856891
49.314164	132.721571	10.599002	-0.015827	0.856596
49.188275	132.532811	10.604006	-0.015802	0.856169
49.215371	132.332659	10.609011	-0.015808	0.855832
49.262982	132.118591	10.614016	-0.015819	0.855486
49.239562	131.932543	10.619021	-0.015815	0.855138
49.133675	131.756657	10.624026	-0.015794	0.854747
49.159775	131.525006	10.629030	-0.015800	0.854353
49.173848	131.324352	10.634035	-0.015804	0.854005
49.111193	131.151440	10.639040	-0.015792	0.853651
48.987384	130.944905	10.644045	-0.015767	0.853192
48.987485	130.728126	10.649050	-0.015768	0.852804
49.087937	130.536676	10.654054	-0.015790	0.852536
49.015618	130.334435	10.659059	-0.015776	0.852122
49.070644	130.111657	10.664064	-0.015788	0.851763
49.102361	129.935346	10.669069	-0.015796	0.851472
49.037954	129.733369	10.674074	-0.015783	0.851063
49.088549	129.526283	10.679078	-0.015795	0.850729
48.972205	129.338775	10.684083	-0.015771	0.850308
48.996892	129.130144	10.689088	-0.015777	0.849952
48.958305	128.924490	10.694093	-0.015770	0.849555
48.985944	128.738922	10.699098	-0.015777	0.849243
48.968712	128.537600	10.704102	-0.015774	0.848869
48.865968	128.347310	10.709107	-0.015754	0.848452
48.901789	128.115640	10.714112	-0.015762	0.848061
48.795437	127.947042	10.719117	-0.015741	0.847680
48.879267	127.716671	10.724122	-0.015759	0.847328
48.826310	127.535725	10.729126	-0.015749	0.846964
48.880458	127.317468	10.734131	-0.015761	0.846611
48.815758	127.149115	10.739136	-0.015749	0.846260
48.865248	126.915228	10.744141	-0.015760	0.845875
48.810492	126.737461	10.749146	-0.015750	0.845515
48.910873	126.503723	10.754150	-0.015772	0.845167
49.034589	126.319647	10.759155	-0.015799	0.844927
48.865974	126.139024	10.764160	-0.015764	0.844477
48.740411	125.954721	10.769165	-0.015739	0.844052
48.675064	125.759044	10.774170	-0.015726	0.843650
48.760133	125.524511	10.779174	-0.015745	0.843289
48.741877	125.308543	10.784179	-0.015742	0.842885
48.746736	125.123678	10.789184	-0.015744	0.842555
48.687490	124.949289	10.794189	-0.015732	0.842196
48.695703	124.729286	10.799194	-0.015735	0.841803
48.778262	124.507180	10.804198	-0.015753	0.841462
48.637324	124.338722	10.809203	-0.015724	0.841053
48.710486	124.123080	10.814208	-0.015741	0.840717
48.689776	123.934375	10.819213	-0.015737	0.840359
48.788994	123.716335	10.824218	-0.015759	0.840038
48.763050	123.521310	10.829222	-0.015755	0.839665
48.730337	123.337010	10.834227	-0.015749	0.839306
48.780064	123.122984	10.839232	-0.015760	0.838954
48.629693	122.944442	10.844237	-0.015729	0.838518
48.664521	122.726836	10.849242	-0.015738	0.838149
48.652882	122.525640	10.854246	-0.015736	0.837774
48.614126	122.338504	10.859251	-0.015729	0.837405
48.630359	122.109068	10.864256	-0.015733	0.836999
48.616418	121.927345	10.869261	-0.015731	0.836658
48.566704	121.737215	10.874266	-0.015722	0.836275
48.669899	121.507291	10.879270	-0.015745	0.835933
48.482350	121.360986	10.884275	-0.015706	0.835526
48.459256	121.124831	10.889280	-0.015702	0.835078
48.529990	120.920756	10.894285	-0.015718	0.834758
48.445917	120.747798	10.899290	-0.015701	0.834380
48.515504	120.482289	10.904294	-0.015717	0.833946
48.512742	120.345978	10.909299	-0.015717	0.833696
48.468441	120.126560	10.914304	-0.015709	0.833262
48.588129	119.905129	10.919309	-0.015735	0.832946
48.529001	119.734504	10.924314	-0.015723	0.832590
48.450667	119.537405	10.929318	-0.015708	0.832171
48.522853	119.312360	10.934323	-0.015724	0.831812
48.473460	119.132297	10.939328	-0.015715	0.831446
48.446617	118.925217	10.944333	-0.015710	0.831046
48.458949	118.714432	10.949338	-0.015713	0.830669
48.475094	118.510613	10.954342	-0.015718	0.830307
48.344982	118.361458	10.959347	-0.015691	0.829936
48.346766	118.113019	10.964352	-0.015693	0.829480
48.256905	117.943848	10.969357	-0.015675	0.829102
48.450423	117.688618	10.974362	-0.015716	0.828778
48.324754	117.542986	10.979366	-0.015691	0.828417
48.410031	117.296253	10.984371	-0.015710	0.828026
48.416198	117.113668	10.989376	-0.015712	0.827695
48.323536	116.951745	10.994381	-0.015693	0.827328
48.282552	116.718429	10.999386	-0.015686	0.826866
48.280205	116.522657	11.004390	-0.015686	0.826504
48.258642	116.334586	11.009395	-0.015683	0.826141
48.339686	116.108296	11.014400	-0.015701	0.825785
48.250218	115.928024	11.019405	-0.015683	0.825385
48.225271	115.726900	11.024410	-0.015678	0.824994
48.230178	115.497817	11.029414	-0.015680	0.824574
48.242330	115.330310	11.034419	-0.015684	0.824275
48.241270	115.127935	11.039424	-0.015685	0.823900
48.154564	114.951168	11.044429	-0.015667	0.823507
48.126905	114.723849	11.049434	-0.015662	0.823065
48.129298	114.517065	11.054438	-0.015664	0.822684
48.109074	114.311073	11.059443	-0.015661	0.822287
48.135847	114.115324	11.064448	-0.015667	0.821945
48.149336	113.919517	11.069453	-0.015671	0.821592
48.062693	113.731189	11.074458	-0.015654	0.821177
47.996058	113.542531	11.079462	-0.015641	0.820776
48.080869	113.292131	11.084467	-0.015659	0.820375
48.067997	113.120278	11.089472	-0.015658	0.820047
48.090212	112.914654	11.094477	-0.015663	0.819682
48.060372	112.727075	11.099482	-0.015658	0.819310
48.109967	112.516916	11.104486	-0.015669	0.818957
48.129449	112.302984	11.109491	-0.015674	0.818574
48.091491	112.142024	11.114496	-0.015667	0.818246
48.005006	111.934369	11.119501	-0.015650	0.817793
48.072529	111.705847	11.124506	-0.015665	0.817418
48.028775	111.508105	11.129510	-0.015657	0.817016
48.055565	111.313438	11.134515	-0.015663	0.816674
48.009394	111.121639	11.139520	-0.015655	0.816281
48.006380	110.914266	11.144525	-0.015655	0.815891
47.989688	110.717737	11.149530	-0.015652	0.815511
47.978652	110.528677	11.154534	-0.015651	0.815150
48.073040	110.301390	11.159539	-0.015672	0.814797
48.005075	110.122173	11.164544	-0.015658	0.814410
47.989423	109.910756	11.169549	-0.015656	0.814002
47.965147	109.748255	11.174554	-0.015652	0.813680
47.795801	109.542980	11.179558	-0.015617	0.813165
47.921682	109.294531	11.184563	-0.015645	0.812795
47.949364	109.100356	11.189568	-0.015651	0.812453
47.938199	108.913593	11.194573	-0.015650	0.812094
47.865057	108.740957	11.199578	-0.015636	0.811714
47.922663	108.506546	11.204582	-0.015649	0.811318
47.873363	108.308423	11.209587	-0.015639	0.810908
47.920817	108.100772	11.214592	-0.015650	0.810554
47.854144	107.934516	11.219597	-0.015637	0.810191
47.758077	107.739270	11.224602	-0.015618	0.809749
47.803396	107.509466	11.229606	-0.015628	0.809352
47.831616	107.298431	11.234611	-0.015635	0.808976
47.667071	107.152853	11.239616	-0.015602	0.808575
47.841702	106.876368	11.244621	-0.015639	0.808188
47.883148	106.708562	11.249626	-0.015649	0.807905
47.908088	106.502986	11.254630	-0.015655	0.807536
47.830554	106.329747	11.259635	-0.015640	0.807149
47.845574	106.107186	11.264640	-0.015644	0.806741
47.857360	105.916169	11.269645	-0.015647	0.806389
47.804549	105.734537	11.274650	-0.015637	0.806005
47.805993	105.507551	11.279654	-0.015638	0.805577
47.756278	105.312970	11.284659	-0.015629	0.805170
47.727178	105.121124	11.289664	-0.015624	0.804784
47.633134	104.919469	11.294669	-0.015605	0.804329
47.715594	104.715994	11.299674	-0.015623	0.804008
47.752808	104.512507	11.304678	-0.015632	0.803651
47.698433	104.317401	11.309683	-0.015621	0.803239
47.705177	104.106545	11.314688	-0.015624	0.802844
47.731355	103.903019	11.319693	-0.015630	0.802478
47.736429	103.705208	11.324698	-0.015632	0.802107
47.683626	103.527574	11.329702	-0.015622	0.801728
47.582344	103.324734	11.334707	-0.015602	0.801264
47.561320	103.118182	11.339712	-0.015598	0.800854
47.490213	102.921508	11.344717	-0.015584	0.800424
47.554462	102.710391	11.349722	-0.015599	0.800073
47.612149	102.494196	11.354726	-0.015612	0.799706
47.544488	102.311893	11.359731	-0.015598	0.799306
47.486961	102.122686	11.364736	-0.015587	0.798900
47.552379	101.913547	11.369741	-0.015602	0.798552
47.546640	101.712951	11.374746	-0.015602	0.798165
47.468610	101.525033	11.379750	-0.015586	0.797745
47.470773	101.303333	11.384755	-0.015588	0.797323
47.433094	101.118531	11.389760	-0.015581	0.796941
47.513300	100.894914	11.394765	-0.015598	0.796576
47.456677	100.711070	11.399770	-0.015587	0.796180
47.487388	100.507442	11.404774	-0.015595	0.795814
47.485432	100.296871	11.409779	-0.015595	0.795409
47.515015	100.115511	11.414784	-0.015603	0.795085
47.334912	99.928266	11.419789	-0.015566	0.794585
47.377754	99.724142	11.424794	-0.015576	0.794227
47.374110	99.509240	11.429798	-0.015576	0.793812
47.407237	99.299995	11.434803	-0.015584	0.793436
47.427063	99.096102	11.439808	-0.015589	0.793060
47.202858	98.961967	11.444813	-0.015543	0.792626
47.341625	98.681688	11.449818	-0.015573	0.792196
47.263678	98.515904	11.454822	-0.015557	0.791816
47.259982	98.312879	11.459827	-0.015557	0.791422
47.189193	98.129357	11.464832	-0.015543	0.791013
47.141705	97.896849	11.469837	-0.015534	0.790527
47.264352	97.684393	11.474842	-0.015561	0.790214
47.243492	97.513866	11.479846	-0.015558	0.789869
47.283889	97.303100	11.484851	-0.015567	0.789495
47.241263	97.114537	11.489856	-0.015559	0.789097
47.149987	96.915453	11.494861	-0.015541	0.788640
47.194530	96.702976	11.499866	-0.015551	0.788265
47.281374	96.496975	11.504870	-0.015570	0.787936
47.120096	96.322900	11.509875	-0.015537	0.787471
47.146271	96.104536	11.514880	-0.015544	0.787069
47.160219	95.912779	11.519885	-0.015548	0.786709
47.098092	95.720638	11.524890	-0.015536	0.786288
47.018101	95.515759	11.529894	-0.015520	0.785827
47.092594	95.278443	11.534899	-0.015536	0.785425
47.010616	95.127894	11.539904	-0.015520	0.785069
46.962942	94.920120	11.544909	-0.015511	0.784627
47.021622	94.683157	11.549914	-0.015524	0.784213
47.025407	94.512958	11.554918	-0.015526	0.783886
46.907793	94.332092	11.559923	-0.015502	0.783441
46.931345	94.085453	11.564928	-0.015508	0.782979
46.960500	93.915698	11.569933	-0.015515	0.782672
46.891784	93.715287	11.574938	-0.015502	0.782227
46.867266	93.513567	11.579942	-0.015497	0.781814
46.918379	93.286789	11.584947	-0.015509	0.781413
46.949408	93.101717	11.589952	-0.015517	0.781077
46.839783	92.919520	11.594957	-0.015494	0.780634
46.832851	92.705633	11.599962	-0.015494	0.780211
46.900949	92.493953	11.604966	-0.015509	0.779852
46.844335	92.313039	11.609971	-0.015498	0.779453
46.738726	92.113468	11.614976	-0.015477	0.778978
46.744031	91.910257	11.619981	-0.015479	0.778585
46.733112	91.719608	11.624986	-0.015478	0.778203
46.690822	91.482013	11.629990	-0.015470	0.777703
46.724143	91.313187	11.634995	-0.015478	0.777400
46.765613	91.089638	11.640000	-0.015487	0.776994
46.697599	90.914392	11.645005	-0.015474	0.776596
46.809585	90.691603	11.650010	-0.015499	0.776249
46.706103	90.510227	11.655014	-0.015478	0.775810
46.717252	90.300289	11.660019	-0.015481	0.775406
46.661130	90.113880	11.665024	-0.015470	0.774995
46.717884	89.890547	11.670029	-0.015483	0.774601
46.659967	89.714515	11.675034	-0.015472	0.774209
46.684274	89.503871	11.680038	-0.015478	0.773813
46.620817	89.314720	11.685043	-0.015465	0.773390
46.564846	89.103569	11.690048	-0.015455	0.772928
46.544702	88.909855	11.695053	-0.015451	0.772530
46.597393	88.706011	11.700058	-0.015463	0.772171
46.473869	88.510719	11.705062	-0.015438	0.771685
46.585759	88.285666	11.710067	-0.015463	0.771331
46.507856	88.109860	11.715072	-0.015447	0.770921
46.468884	87.906908	11.720077	-0.015440	0.770488
46.530282	87.688616	11.725082	-0.015454	0.770106
46.579482	87.498010	11.730086	-0.015465	0.769769
46.451531	87.313718	11.735091	-0.015439	0.769300
46.389382	87.101637	11.740096	-0.015427	0.768829
46.347590	86.932751	11.745101	-0.015419	0.768461
46.262554	86.693788	11.750106	-0.015402	0.767917
46.346985	86.488588	11.755110	-0.015421	0.767578
46.380894	86.299322	11.760115	-0.015429	0.767231
46.300920	86.113241	11.765120	-0.015413	0.766796
46.384523	85.883305	11.770125	-0.015432	0.766407
46.341510	85.699794	11.775130	-0.015424	0.766007
46.273902	85.505208	11.780134	-0.015410	0.765565
46.288182	85.292835	11.785139	-0.015414	0.765153
46.342288	85.100535	11.790144	-0.015427	0.764815
46.208880	84.918358	11.795149	-0.015400	0.764343
46.234963	84.693240	11.800154	-0.015406	0.763915
46.187753	84.522203	11.805158	-0.015397	0.763536
46.136783	84.293469	11.810163	-0.015387	0.763037
46.181538	84.095966	11.815168	-0.015398	0.762679
46.056106	83.926706	11.820173	-0.015372	0.762238
46.104830	83.682034	11.825178	-0.015383	0.761788
46.176982	83.485891	11.830182	-0.015399	0.761456
46.046555	83.314618	11.835187	-0.015373	0.761006
46.017646	83.098470	11.840192	-0.015368	0.760549
46.154454	82.886629	11.845197	-0.015397	0.760237
46.076626	82.699151	11.850202	-0.015382	0.759797
46.183493	82.477093	11.855206	-0.015405	0.759440
46.120039	82.308937	11.860211	-0.015393	0.759051
46.071482	82.103503	11.865216	-0.015384	0.758598
46.168614	81.892391	11.870221	-0.015405	0.758254
46.138485	81.702938	11.875226	-0.015400	0.757849
46.134123	81.498543	11.880230	-0.015400	0.757434
46.066425	81.301435	11.885235	-0.015387	0.756981
46.099470	81.087385	11.890240	-0.015394	0.756578
46.044542	80.900666	11.895245	-0.015384	0.756156
45.995749	80.712021	11.900250	-0.015374	0.755736
46.021863	80.484107	11.905254	-0.015381	0.755297
46.026970	80.288067	11.910259	-0.015383	0.754906
45.981302	80.104346	11.915264	-0.015374	0.754498
45.925456	79.921291	11.920269	-0.015363	0.754082
45.927213	79.681647	11.925274	-0.015365	0.753598
45.887333	79.506576	11.930278	-0.015357	0.753211
45.956978	79.290382	11.935283	-0.015373	0.752832
45.848699	79.106841	11.940288	-0.015351	0.752370
45.814895	78.893160	11.945293	-0.015345	0.751909
45.938908	78.683702	11.950298	-0.015372	0.751588
45.849948	78.505268	11.955302	-0.015354	0.751152
45.885164	78.281383	11.960307	-0.015363	0.750727
45.936409	78.092692	11.965312	-0.015374	0.750387
45.819684	77.909377	11.970317	-0.015351	0.749917
45.830852	77.703901	11.975322	-0.015354	0.749509
45.804544	77.482014	11.980326	-0.015349	0.749036
45.792548	77.290558	11.985331	-0.015348	0.748636
45.750828	77.100706	11.990336	-0.015340	0.748215
45.702734	76.914445	11.995341	-0.015331	0.747795
45.734403	76.683605	12.000346	-0.015338	0.747351
45.795130	76.476853	12.005350	-0.015352	0.746980
45.800040	76.293616	12.010355	-0.015354	0.746611
45.806069	76.090925	12.015360	-0.015356	0.746202
45.679124	75.897475	12.020365	-0.015331	0.745701
45.670045	75.710044	12.025370	-0.015330	0.745310
45.756061	75.472820	12.030374	-0.015349	0.744897
45.748428	75.288667	12.035379	-0.015348	0.744514
45.802203	75.083847	12.040384	-0.015360	0.744140
45.609986	74.933000	12.045389	-0.015321	0.743670
45.536029	74.710416	12.050394	-0.015306	0.743151
45.546716	74.485487	12.055398	-0.015309	0.742698
45.572280	74.281777	12.060403	-0.015316	0.742302
45.547548	74.098173	12.065408	-0.015311	0.741904
45.480915	73.908336	12.070413	-0.015298	0.741458
45.537420	73.667420	12.075418	-0.015311	0.741010
45.524975	73.508863	12.080422	-0.015309	0.740674
45.517827	73.290780	12.085427	-0.015309	0.740219
45.601986	73.067540	12.090432	-0.015328	0.739831
45.521047	72.903170	12.095437	-0.015311	0.739424
45.543859	72.691787	12.100442	-0.015317	0.739008
45.544599	72.479859	12.105446	-0.015318	0.738571
45.523806	72.293140	12.110451	-0.015315	0.738168
45.519978	72.087770	12.115456	-0.015315	0.737741
45.483878	71.912756	12.120461	-0.015308	0.737349
45.563104	71.664767	12.125466	-0.015326	0.736903
45.549501	71.499356	12.130470	-0.015324	0.736550
45.511289	71.289125	12.135475	-0.015317	0.736083
45.393997	71.111064	12.140480	-0.015293	0.735614
45.407873	70.885857	12.145485	-0.015297	0.735159
45.467308	70.684687	12.150490	-0.015311	0.734793
45.508999	70.466625	12.155494	-0.015320	0.734376
45.415169	70.313658	12.160499	-0.015301	0.733979
45.301601	70.120389	12.165504	-0.015278	0.733481
45.355210	69.877507	12.170509	-0.015291	0.733021
45.262562	69.688906	12.175514	-0.015272	0.732550
45.320008	69.494593	12.180518	-0.015285	0.732195
45.294836	69.285376	12.185523	-0.015281	0.731738
45.240737	69.099093	12.190528	-0.015270	0.731304
45.183593	68.902828	12.195533	-0.015259	0.730846
45.192771	68.686658	12.200538	-0.015262	0.730403
45.157574	68.487886	12.205542	-0.015256	0.729958
45.197292	68.277862	12.210547	-0.015265	0.729553
45.141453	68.093018	12.215552	-0.015254	0.729119
45.164103	67.893106	12.220557	-0.015260	0.728721
45.109996	67.702912	12.225562	-0.015250	0.728277
45.079046	67.499032	12.230566	-0.015244	0.727824
45.181742	67.251558	12.235571	-0.015266	0.727393
45.004770	67.111778	12.240576	-0.015230	0.726949
45.129783	66.862549	12.245581	-0.015257	0.726533
45.114209	66.697009	12.250586	-0.015255	0.726173
45.066024	66.496591	12.255590	-0.015246	0.725711
45.172367	66.259257	12.260595	-0.015269	0.725304
45.096694	66.097472	12.265600	-0.015254	0.724899
44.966500	65.912919	12.270605	-0.015228	0.724399
45.033975	65.680380	12.275610	-0.015243	0.723967
44.965328	65.499925	12.280614	-0.015229	0.723528
44.978312	65.286180	12.285619	-0.015233	0.723089
44.925366	65.088048	12.290624	-0.015223	0.722626
44.927421	64.889506	12.295629	-0.015224	0.722209
45.057300	64.660477	12.300634	-0.015253	0.721838
45.030033	64.491367	12.305638	-0.015248	0.721458
44.838345	64.321021	12.310643	-0.015208	0.720932
44.937378	64.066435	12.315648	-0.015230	0.720479
44.898304	63.878332	12.320653	-0.015223	0.720047
44.691898	63.734384	12.325658	-0.015180	0.719563
44.856567	63.449265	12.330662	-0.015216	0.719102
44.786314	63.299851	12.335667	-0.015202	0.718725
44.759006	63.094205	12.340672	-0.015197	0.718265
44.816667	62.868885	12.345677	-0.015210	0.717837
44.811260	62.684846	12.350682	-0.015210	0.717441
44.686085	62.507230	12.355686	-0.015185	0.716955
44.743920	62.262459	12.360691	-0.015198	0.716484
44.585256	62.114125	12.365696	-0.015166	0.716031
44.673339	61.872277	12.370701	-0.015185	0.715593
44.673007	61.678758	12.375706	-0.015186	0.715180
44.569370	61.502346	12.380710	-0.015165	0.714714
44.486829	61.302852	12.385715	-0.015149	0.714216
44.647027	61.051617	12.390720	-0.015183	0.713820
44.597050	60.907057	12.395725	-0.015174	0.713468
44.528830	60.698064	12.400730	-0.015160	0.712962
44.629921	60.448772	12.405734	-0.015182	0.712517
44.502091	60.314203	12.410739	-0.015157	0.712118
44.478430	60.076582	12.415744	-0.015152	0.711587
44.472675	59.892956	12.420749	-0.015152	0.711189
44.510966	59.690680	12.425754	-0.015161	0.710790
44.440701	59.480489	12.430758	-0.015147	0.710277
44.460241	59.272099	12.435763	-0.015152	0.709847
44.444007	59.074953	12.440768	-0.015150	0.709409
44.458176	58.895408	12.445773	-0.015154	0.709037
44.353256	58.702623	12.450778	-0.015133	0.708529
44.355280	58.481650	12.455782	-0.015134	0.708055
44.375970	58.270609	12.460787	-0.015139	0.707619
44.400702	58.075697	12.465792	-0.015146	0.707222
44.394916	57.876034	12.470797	-0.015145	0.706786
44.411759	57.687536	12.475802	-0.015150	0.706395
44.297659	57.494003	12.480806	-0.015127	0.705876
44.254394	57.294394	12.485811	-0.015119	0.705407
44.231684	57.080806	12.490816	-0.015115	0.704925
44.293043	56.873160	12.495821	-0.015129	0.704530
44.218830	56.675606	12.500826	-0.015114	0.704037
44.214574	56.488609	12.505830	-0.015114	0.703629
44.251913	56.287970	12.510835	-0.015123	0.703227
44.194265	56.084493	12.515840	-0.015112	0.702735
44.133091	55.895658	12.520845	-0.015100	0.702271
44.201506	55.662444	12.525850	-0.015115	0.701825
44.230821	55.475912	12.530854	-0.015122	0.701447
44.190738	55.270202	12.535859	-0.015115	0.700964
44.025528	55.123213	12.540864	-0.015081	0.700497
44.088774	54.869535	12.545869	-0.015095	0.700001
44.107361	54.675587	12.550874	-0.015100	0.699596
44.103507	54.479920	12.555878	-0.015100	0.699166
44.100875	54.285646	12.560883	-0.015100	0.698740
43.946566	54.110326	12.565888	-0.015069	0.698220
44.025395	53.865351	12.570893	-0.015086	0.697755
44.041143	53.658577	12.575898	-0.015091	0.697317
43.936212	53.496019	12.580902	-0.015070	0.696868
43.833312	53.299016	12.585907	-0.015049	0.696345
43.922121	53.062640	12.590912	-0.015068	0.695907
43.907863	52.879068	12.595917	-0.015066	0.695492
43.914477	52.677235	12.600922	-0.015069	0.695056
43.854166	52.483285	12.605926	-0.015057	0.694576
43.832416	52.284325	12.610931	-0.015053	0.694120
43.897971	52.058648	12.615936	-0.015068	0.693684
43.776955	51.921249	12.620941	-0.015044	0.693273
43.708772	51.702882	12.625946	-0.015030	0.692731
43.845809	51.450029	12.630950	-0.015060	0.692298
43.835380	51.262459	12.635955	-0.015059	0.691876
43.786556	51.088876	12.640960	-0.015049	0.691450
43.766466	50.887220	12.645965	-0.015046	0.690987
43.692160	50.689471	12.650970	-0.015031	0.690483
43.716628	50.461418	12.655974	-0.015038	0.690002
43.697074	50.282093	12.660979	-0.015034	0.689588
43.580446	50.095393	12.665984	-0.015011	0.689070
43.638797	49.881744	12.670989	-0.015024	0.688650
43.619762	49.685668	12.675994	-0.015021	0.688199
43.605179	49.466269	12.680998	-0.015019	0.687699
43.605937	49.272145	12.686003	-0.015020	0.687270
43.607999	49.072101	12.691008	-0.015021	0.686828
43.555295	48.894401	12.696013	-0.015011	0.686386
43.509744	48.666291	12.701018	-0.015003	0.685837
43.456122	48.502450	12.706022	-0.014992	0.685425
43.496149	48.248297	12.711027	-0.015002	0.684895
43.463861	48.087049	12.716032	-0.014996	0.684508
43.516214	47.859930	12.721037	-0.015008	0.684050
43.483108	47.680098	12.726042	-0.015002	0.683619
43.501197	47.486267	12.731046	-0.015006	0.683204
43.505435	47.265282	12.736051	-0.015008	0.682714
43.451017	47.091821	12.741056	-0.014998	0.682277
43.487598	46.864998	12.746061	-0.015006	0.681804
43.491296	46.682676	12.751066	-0.015008	0.681400
43.462785	46.473461	12.756070	-0.015003	0.680906
43.405992	46.286000	12.761075	-0.014992	0.680434
43.304036	46.090689	12.766080	-0.014972	0.679902
43.366985	45.856986	12.771085	-0.014986	0.679436
43.363787	45.678502	12.776090	-0.014986	0.679033
43.287702	45.492809	12.781094	-0.014971	0.678546
43.348268	45.260284	12.786099	-0.014985	0.678079
43.225093	45.100855	12.791104	-0.014960	0.677608
43.198352	44.883205	12.796109	-0.014955	0.677093
43.195639	44.670578	12.801114	-0.014955	0.676612
43.118397	44.489164	12.806118	-0.014940	0.676132
43.324076	44.239291	12.811123	-0.014984	0.675759
43.207634	44.075921	12.816128	-0.014961	0.675283
43.183684	43.880901	12.821133	-0.014957	0.674820
43.108621	43.693339	12.826138	-0.014942	0.674327
43.183995	43.467662	12.831142	-0.014959	0.673887
43.118636	43.267240	12.836147	-0.014946	0.673372
43.070487	43.083221	12.841152	-0.014937	0.672911
42.935696	42.887026	12.846157	-0.014909	0.672341
43.059855	42.651886	12.851162	-0.014936	0.671923
43.020620	42.475593	12.856166	-0.014929	0.671487
42.796819	42.319092	12.861171	-0.014883	0.670923
42.878630	42.053126	12.866176	-0.014901	0.670394
42.955880	41.860221	12.871181	-0.014918	0.670029
42.908225	41.675476	12.876186	-0.014909	0.669564
42.931674	41.477780	12.881190	-0.014915	0.669136
42.968956	41.257324	12.886195	-0.014924	0.668669
42.913430	41.083634	12.891200	-0.014913	0.668221
42.791475	40.872282	12.896205	-0.014888	0.667624
42.896851	40.671153	12.901210	-0.014911	0.667264
42.820197	40.474036	12.906214	-0.014896	0.666742
42.767574	40.277831	12.911219	-0.014886	0.666244
42.769703	40.074508	12.916224	-0.014887	0.665780
42.835960	39.860453	12.921229	-0.014902	0.665353
42.772389	39.681289	12.926234	-0.014890	0.664883
42.726281	39.485601	12.931238	-0.014881	0.664391
42.636656	39.274776	12.936243	-0.014863	0.663822
42.719901	39.062344	12.941248	-0.014882	0.663413
42.647183	38.895892	12.946253	-0.014867	0.662962
42.622658	38.677418	12.951258	-0.014863	0.662436
42.476671	38.490494	12.956262	-0.014833	0.661868
42.486561	38.263535	12.961267	-0.014836	0.661354
42.523854	38.062508	12.966272	-0.014845	0.660926
42.519363	37.865321	12.971277	-0.014845	0.660467
42.715559	37.635469	12.976282	-0.014887	0.660123
42.488409	37.501903	12.981286	-0.014840	0.659600
42.487530	37.285791	12.986291	-0.014841	0.659099
42.557496	37.042212	12.991296	-0.014857	0.658602
42.527521	36.886470	12.996301	-0.014852	0.658214
42.499746	36.660356	13.001306	-0.014847	0.657663
42.495969	36.469370	13.006310	-0.014847	0.657217
42.544889	36.268217	13.011315	-0.014858	0.656798
42.383696	36.096300	13.016320	-0.014825	0.656245
42.362486	35.884625	13.021325	-0.014822	0.655733
42.293483	35.675821	13.026330	-0.014808	0.655181
42.339587	35.448867	13.031334	-0.014819	0.654697
42.302986	35.276190	13.036339	-0.014812	0.654260
42.356471	35.059411	13.041344	-0.014824	0.653806
42.294405	34.875791	13.046349	-0.014812	0.653319
42.275240	34.689480	13.051354	-0.014809	0.652866
42.161226	34.490328	13.056358	-0.014786	0.652291
42.155853	34.269704	13.061363	-0.014786	0.651770
42.031545	34.095200	13.066368	-0.014760	0.651242
42.154794	33.846997	13.071373	-0.014787	0.650780
42.208861	33.658725	13.076378	-0.014800	0.650391
42.080646	33.477473	13.081382	-0.014774	0.649843
42.034762	33.277322	13.086387	-0.014765	0.649329
42.103337	33.052231	13.091392	-0.014780	0.648867
42.062325	32.878146	13.096397	-0.014773	0.648418
42.097774	32.659323	13.101402	-0.014781	0.647938
42.111364	32.454737	13.106406	-0.014785	0.647470
42.088520	32.273034	13.111411	-0.014781	0.647021
41.965361	32.095971	13.116416	-0.014756	0.646484
41.930769	31.869690	13.121421	-0.014750	0.645916
41.885782	31.677494	13.126426	-0.014741	0.645419
41.947685	31.464357	13.131430	-0.014755	0.644976
41.997982	31.242199	13.136435	-0.014767	0.644500
41.919181	31.084610	13.141440	-0.014751	0.644051
41.916827	30.865217	13.146445	-0.014751	0.643529
41.910789	30.680594	13.151450	-0.014751	0.643086
41.834618	30.481716	13.156454	-0.014736	0.642540
41.763590	30.275698	13.161459	-0.014722	0.641982
41.724611	30.072845	13.166464	-0.014715	0.641462
41.743563	29.867726	13.171469	-0.014720	0.640993
41.675968	29.683843	13.176474	-0.014706	0.640490
41.642896	29.462711	13.181478	-0.014700	0.639931
41.727490	29.244947	13.186483	-0.014719	0.639495
41.635918	29.083869	13.191488	-0.014701	0.639022
41.632021	28.871901	13.196493	-0.014701	0.638512
41.677193	28.655961	13.201498	-0.014711	0.638041
41.508282	28.488592	13.206502	-0.014677	0.637475
41.574335	28.257182	13.211507	-0.014692	0.636986
41.536951	28.066573	13.216512	-0.014685	0.636494
41.495885	27.876322	13.221517	-0.014677	0.635998
41.512421	27.663813	13.226522	-0.014681	0.635504
41.399106	27.497707	13.231526	-0.014659	0.634994
41.338292	27.259272	13.236531	-0.014647	0.634361
41.316230	27.071098	13.241536	-0.014643	0.633887
41.239426	26.886341	13.246541	-0.014628	0.633367
41.189405	26.696754	13.251546	-0.014618	0.632861
41.269932	26.452347	13.256550	-0.014636	0.632352
41.274229	26.249319	13.261555	-0.014638	0.631867
41.299909	26.062968	13.266560	-0.014644	0.631443
41.249573	25.869549	13.271565	-0.014635	0.630926
41.310712	25.650065	13.276570	-0.014648	0.630457
41.367149	25.443357	13.281574	-0.014661	0.630013
41.312022	25.271897	13.286579	-0.014651	0.629544
41.310340	25.065116	13.291584	-0.014651	0.629041
41.124800	24.914993	13.296589	-0.014613	0.628493
41.128852	24.651806	13.301594	-0.014615	0.627857
41.133707	24.459136	13.306598	-0.014617	0.627395
41.172622	24.253295	13.311603	-0.014626	0.626934
41.008890	24.093140	13.316608	-0.014592	0.626381
40.981713	23.884527	13.321613	-0.014588	0.625845
41.036199	23.645058	13.326618	-0.014600	0.625316
41.027986	23.473563	13.331622	-0.014599	0.624891
41.010364	23.250042	13.336627	-0.014597	0.624327
40.921144	23.082758	13.341632	-0.014579	0.623829
40.866078	22.877282	13.346637	-0.014568	0.623272
40.855694	22.678691	13.351642	-0.014567	0.622776
40.850655	22.462095	13.356646	-0.014567	0.622240
40.877247	22.249815	13.361651	-0.014573	0.621747
40.861719	22.060332	13.366656	-0.014571	0.621267
40.713862	21.895549	13.371661	-0.014541	0.620713
40.767212	21.656217	13.376666	-0.014553	0.620179
40.857174	21.438267	13.381670	-0.014573	0.619734
40.770189	21.292422	13.386675	-0.014555	0.619288
40.690325	21.064456	13.391680	-0.014540	0.618645
40.644862	20.878368	13.396685	-0.014531	0.618141
40.556532	20.684069	13.401690	-0.014513	0.617572
40.545099	20.461088	13.406694	-0.014512	0.617009
40.637183	20.242151	13.411699	-0.014532	0.616562
40.642194	20.062772	13.416704	-0.014534	0.616124
40.465941	19.898938	13.421709	-0.014498	0.615540
40.453541	19.656159	13.426714	-0.014496	0.614925
40.414988	19.469102	13.431718	-0.014489	0.614422
40.542995	19.234926	13.436723	-0.014517	0.613972
40.419867	19.080081	13.441728	-0.014492	0.613462
40.281472	18.907418	13.446733	-0.014464	0.612891
40.292941	18.671224	13.451738	-0.014467	0.612315
40.296155	18.472649	13.456742	-0.014469	0.611824
40.181362	18.263854	13.461747	-0.014446	0.611185
40.241973	18.050031	13.466752	-0.014459	0.610714
40.256770	17.850396	13.471757	-0.014463	0.610231
40.377093	17.644212	13.476762	-0.014490	0.609840
40.125653	17.495786	13.481766	-0.014438	0.609211
40.034713	17.291665	13.486771	-0.014420	0.608606
40.166634	17.042601	13.491776	-0.014448	0.608118
40.057904	16.876485	13.496781	-0.014426	0.607589
40.005906	16.674636	13.501786	-0.014416	0.607029
39.989462	16.454536	13.506790	-0.014414	0.606459
39.900845	16.269746	13.511795	-0.014396	0.605903
39.921644	16.072634	13.516800	-0.014401	0.605428
39.921023	15.859505	13.521805	-0.014402	0.604891
39.809358	15.671219	13.526810	-0.014380	0.604300
39.815278	15.467936	13.531814	-0.014382	0.603794
39.790375	15.268571	13.536819	-0.014378	0.603264
39.684874	15.089318	13.541824	-0.014356	0.602702
39.810720	14.823009	13.546829	-0.014384	0.602158
39.758986	14.679558	13.551834	-0.014374	0.601742
39.676707	14.466643	13.556838	-0.014357	0.601117
39.620536	14.283128	13.561843	-0.014347	0.600593
39.612060	14.053445	13.566848	-0.014346	0.600000
39.608200	13.864042	13.571853	-0.014346	0.599515
39.541022	13.674642	13.576858	-0.014333	0.598963
39.519814	13.466272	13.581862	-0.014329	0.598411
39.570446	13.250781	13.586867	-0.014341	0.597915
39.592386	13.054618	13.591872	-0.014346	0.597438
39.503932	12.868307	13.596877	-0.014329	0.596869
39.481827	12.665006	13.601882	-0.014325	0.596327
39.458450	12.464700	13.606886	-0.014321	0.595790
39.518365	12.240088	13.611891	-0.014335	0.595278
39.384651	12.081300	13.616896	-0.014307	0.594731
39.355128	11.876624	13.621901	-0.014302	0.594175
39.285519	11.677641	13.626906	-0.014288	0.593591
39.325322	11.451545	13.631910	-0.014298	0.593052
39.113169	11.303059	13.636915	-0.014254	0.592446
39.141148	11.052388	13.641920	-0.014261	0.591829
39.089195	10.871140	13.646925	-0.014251	0.591308
39.089260	10.662367	13.651930	-0.014252	0.590769
39.070721	10.463832	13.656934	-0.014249	0.590237
38.998083	10.261502	13.661939	-0.014235	0.589637
39.003362	10.055990	13.666944	-0.014237	0.589112
39.073750	9.843446	13.671949	-0.014252	0.588637
38.914262	9.701622	13.676954	-0.014220	0.588100
38.897630	9.460111	13.681958	-0.014217	0.587455
38.891723	9.259616	13.686963	-0.014217	0.586929
38.800203	9.073295	13.691968	-0.014199	0.586347
38.887875	8.837369	13.696973	-0.014218	0.585827
38.734233	8.686636	13.701978	-0.014187	0.585270
38.789967	8.444523	13.706982	-0.014199	0.584699
38.748739	8.260856	13.711987	-0.014192	0.584176
38.642815	8.081690	13.716992	-0.014170	0.583595
38.565257	7.891044	13.721997	-0.014155	0.583013
38.539308	7.657511	13.727002	-0.014150	0.582374
38.556986	7.457253	13.732006	-0.014155	0.581869
38.632137	7.246923	13.737011	-0.014172	0.581399
38.651547	7.040866	13.742016	-0.014177	0.580879
38.659814	6.850330	13.747021	-0.014179	0.580389
38.537887	6.689425	13.752026	-0.014155	0.579835
38.537924	6.448722	13.757030	-0.014156	0.579201
38.425382	6.286015	13.762035	-0.014133	0.578651
38.449921	6.055993	13.767040	-0.014139	0.578071
38.372147	5.867294	13.772045	-0.014124	0.577489
38.459724	5.646179	13.777050	-0.014143	0.577000
38.346400	5.476582	13.782054	-0.014120	0.576429
38.306702	5.256712	13.787059	-0.014113	0.575804
38.300020	5.059781	13.792064	-0.014112	0.575275
38.386876	4.846968	13.797069	-0.014131	0.574806
38.234242	4.684412	13.802074	-0.014100	0.574209
38.159088	4.470246	13.807078	-0.014085	0.573557
38.069992	4.289151	13.812083	-0.014068	0.572978
38.129396	4.058650	13.817088	-0.014081	0.572430
37.935876	3.889168	13.822093	-0.014041	0.571766
37.837445	3.686133	13.827098	-0.014021	0.571116
37.844516	3.461194	13.832102	-0.014024	0.570523
37.988704	3.222215	13.837107	-0.014055	0.570043
37.920641	3.061591	13.842112	-0.014042	0.569539
37.747747	2.887849	13.847117	-0.014006	0.568883
37.735759	2.663786	13.852122	-0.014005	0.568269
37.787689	2.461044	13.857126	-0.014017	0.567782
37.748953	2.253350	13.862131	-0.014009	0.567181
37.570123	2.116713	13.867136	-0.013973	0.566617
37.674828	2.018832	13.872141	-0.013996	0.566473
37.559412	2.020971	13.877146	-0.013973	0.566355
37.674670	1.984713	13.882150	-0.013998	0.566390
37.616930	1.995938	13.887155	-0.013987	0.566362
37.587431	1.999305	13.892160	-0.013981	0.566343
37.649446	1.998686	13.897165	-0.013995	0.566416
37.480977	2.024823	13.902170	-0.013961	0.566305
37.558046	1.981437	13.907174	-0.013978	0.566278
37.574659	1.992705	13.912179	-0.013983	0.566332
37.583142	2.008717	13.917184	-0.013985	0.566390
