Tue Oct 04 11:09:39 2016

Number of Points = 2705
Depth (nm)	Load (µN)	Time (s)	Depth (V)	Load (V)
0.419558	2.124149	0.000000	0.000892	0.481461

0.518892	2.094703	0.005005	0.000871	0.481498
0.468552	2.115340	0.010010	0.000882	0.481498
0.481290	2.017971	0.015014	0.000879	0.481203
0.385171	2.047210	0.020019	0.000899	0.481170
0.439182	1.928630	0.025024	0.000888	0.480862
0.459226	1.856633	0.030029	0.000884	0.480657
0.482631	1.751041	0.035034	0.000879	0.480350
0.503839	1.639812	0.040038	0.000874	0.480021
0.389588	1.561063	0.045043	0.000898	0.479618
0.279473	1.483330	0.050048	0.000921	0.479223
0.303182	1.353826	0.055053	0.000916	0.478838
0.255450	1.251860	0.060058	0.000926	0.478446
0.222988	1.106726	0.065062	0.000933	0.477936
0.108726	1.029449	0.070067	0.000957	0.477536
0.163708	0.836633	0.075072	0.000946	0.476986
0.040341	0.728285	0.080077	0.000972	0.476472
0.019197	0.579134	0.085082	0.000976	0.475962
0.036263	0.389270	0.090086	0.000973	0.475370
-0.028933	0.224729	0.095091	0.000986	0.474749
-0.158867	0.082168	0.100096	0.001014	0.474113
-0.213699	-0.075449	0.105101	0.001025	0.473527
-0.265769	-0.249440	0.110106	0.001036	0.472891
-0.408082	-0.366279	0.115110	0.001066	0.472320
-0.541377	-0.506679	0.120115	0.001094	0.471683
-1.046184	-0.477943	0.125120	0.001200	0.471099
-1.356922	-0.463046	0.130125	0.001266	0.470731
-1.585436	-0.479536	0.135130	0.001314	0.470369
-1.709708	-0.501608	0.140134	0.001340	0.470130
-2.109779	-0.400269	0.145139	0.001424	0.469924
-2.330541	-0.409987	0.150144	0.001470	0.469594
-2.136076	-0.525214	0.155149	0.001429	0.469479
-2.390540	-0.481353	0.160154	0.001483	0.469280
-2.603472	-0.462866	0.165158	0.001528	0.469053
-2.642641	-0.475461	0.170163	0.001536	0.468959
-2.716614	-0.493545	0.175168	0.001551	0.468800
-2.837626	-0.484609	0.180173	0.001577	0.468666
-3.044247	-0.481470	0.185178	0.001620	0.468398
-2.975228	-0.528435	0.190182	0.001606	0.468337
-3.202156	-0.490804	0.195187	0.001653	0.468154
-3.441095	-0.430273	0.200192	0.001704	0.468030
-3.465339	-0.421691	0.205197	0.001709	0.468026
-3.513926	-0.467959	0.210202	0.001719	0.467808
-3.602374	-0.460766	0.215206	0.001738	0.467712
-3.795675	-0.428846	0.220211	0.001778	0.467556
-3.972500	-0.398067	0.225216	0.001815	0.467418
-3.931783	-0.415519	0.230221	0.001807	0.467416
-4.028770	-0.387941	0.235226	0.001827	0.467376
-4.311827	-0.361522	0.240230	0.001887	0.467079
-4.211874	-0.402256	0.245235	0.001866	0.467081
-4.203046	-0.440726	0.250240	0.001864	0.466966
-4.585397	-0.345260	0.255245	0.001944	0.466763
-4.317498	-0.492807	0.260250	0.001888	0.466639
-4.539867	-0.461142	0.265254	0.001934	0.466442
-4.638709	-0.455343	0.270259	0.001955	0.466327
-4.841480	-0.427770	0.275264	0.001998	0.466143
-4.859571	-0.473554	0.280269	0.002002	0.465968
-5.023776	-0.453407	0.285274	0.002036	0.465811
-4.987951	-0.486374	0.290278	0.002029	0.465751
-5.265116	-0.448007	0.295283	0.002087	0.465501
-5.222675	-0.499273	0.300288	0.002078	0.465390
-5.537524	-0.430570	0.305293	0.002144	0.465189
-5.421097	-0.478664	0.310298	0.002120	0.465188
-5.683582	-0.450592	0.315302	0.002175	0.464924
-5.558126	-0.514438	0.320307	0.002148	0.464884
-5.936671	-0.445090	0.325312	0.002228	0.464598
-5.853529	-0.492638	0.330317	0.002210	0.464554
-5.892642	-0.515033	0.335322	0.002219	0.464426
-6.051226	-0.506099	0.340326	0.002252	0.464240
-6.338885	-0.461057	0.345331	0.002312	0.463997
-6.388874	-0.463738	0.350336	0.002323	0.463920
-6.440731	-0.442401	0.355341	0.002334	0.463921
-6.482896	-0.495406	0.360346	0.002343	0.463687
-6.666943	-0.439543	0.365350	0.002381	0.463622
-6.666767	-0.467674	0.370355	0.002381	0.463529
-7.061151	-0.376254	0.375360	0.002464	0.463294
-6.726904	-0.521216	0.380365	0.002394	0.463269
-7.204963	-0.410654	0.385370	0.002494	0.462983
-7.245339	-0.393741	0.390374	0.002503	0.462985
-7.174653	-0.432586	0.395379	0.002488	0.462952
-7.291738	-0.470092	0.400384	0.002513	0.462667
-7.300511	-0.494980	0.405389	0.002514	0.462573
-7.628606	-0.409828	0.410394	0.002583	0.462407
-7.553673	-0.440068	0.415398	0.002568	0.462410
-7.739485	-0.458070	0.420403	0.002607	0.462095
-7.850205	-0.419979	0.425408	0.002630	0.462071
-7.916084	-0.455427	0.430413	0.002644	0.461862
-7.963090	-0.467456	0.435418	0.002654	0.461758
-7.992349	-0.506278	0.440422	0.002660	0.461588
-8.171483	-0.478632	0.445427	0.002697	0.461435
-8.367573	-0.474579	0.450432	0.002739	0.461180
-8.310150	-0.511720	0.455437	0.002727	0.461135
-8.533911	-0.485009	0.460442	0.002774	0.460917
-8.725156	-0.440174	0.465446	0.002814	0.460804
-8.838223	-0.393222	0.470451	0.002838	0.460806
-8.920629	-0.436633	0.475456	0.002855	0.460548
-8.925695	-0.449644	0.480461	0.002856	0.460497
-9.027431	-0.425838	0.485466	0.002877	0.460437
-9.245315	-0.411905	0.490470	0.002923	0.460185
-9.195718	-0.433044	0.495475	0.002913	0.460182
-9.212010	-0.499368	0.500480	0.002916	0.459938
-9.334110	-0.474287	0.505485	0.002942	0.459854
-9.667332	-0.428193	0.510490	0.003012	0.459550
-9.632645	-0.443694	0.515494	0.003004	0.459546
-9.679586	-0.481809	0.520499	0.003014	0.459353
-9.868432	-0.441900	0.525504	0.003054	0.459227
-9.989644	-0.414820	0.530509	0.003079	0.459151
-10.129607	-0.429991	0.535514	0.003109	0.458907
-10.169734	-0.413671	0.540518	0.003117	0.458907
-10.211200	-0.457869	0.545523	0.003126	0.458701
-10.273119	-0.459026	0.550528	0.003139	0.458612
-10.436836	-0.436855	0.555533	0.003173	0.458461
-10.412177	-0.500481	0.560538	0.003168	0.458281
-10.673810	-0.456719	0.565542	0.003223	0.458067
-10.859871	-0.407446	0.570547	0.003262	0.457976
-10.827044	-0.420764	0.575552	0.003255	0.457976
-10.923818	-0.465522	0.580557	0.003276	0.457692
-10.861204	-0.512505	0.585562	0.003262	0.457621
-11.276945	-0.410888	0.590566	0.003350	0.457388
-11.170727	-0.453829	0.595571	0.003327	0.457390
-11.411792	-0.434098	0.600576	0.003378	0.457123
-11.432851	-0.446200	0.605581	0.003383	0.457053
-11.567717	-0.427722	0.610586	0.003411	0.456929
-11.792383	-0.391210	0.615590	0.003458	0.456741
-11.634606	-0.457396	0.620595	0.003425	0.456737
-11.839197	-0.454663	0.625600	0.003468	0.456462
-11.933570	-0.430256	0.630605	0.003488	0.456414
-12.031713	-0.411518	0.635610	0.003508	0.456341
-12.236704	-0.393826	0.640614	0.003551	0.456117
-12.172068	-0.470048	0.645619	0.003538	0.455949
-12.457119	-0.400836	0.650624	0.003598	0.455787
-12.376177	-0.433130	0.655629	0.003581	0.455791
-12.657209	-0.406382	0.660634	0.003640	0.455491
-12.577876	-0.443839	0.665638	0.003623	0.455475
-12.684591	-0.448016	0.670643	0.003646	0.455312
-12.868502	-0.415960	0.675648	0.003684	0.455165
-12.903078	-0.459168	0.680653	0.003691	0.454971
-13.145021	-0.391627	0.685658	0.003742	0.454863
-13.141591	-0.394435	0.690662	0.003742	0.454858
-13.477165	-0.355539	0.695667	0.003812	0.454523
-13.188795	-0.473219	0.700672	0.003751	0.454526
-13.393734	-0.448735	0.705677	0.003794	0.454324
-13.677253	-0.366271	0.710682	0.003854	0.454208
-13.703867	-0.354535	0.715686	0.003860	0.454211
-13.702372	-0.444750	0.720691	0.003859	0.453907
-13.600722	-0.517031	0.725696	0.003838	0.453804
-14.000768	-0.414507	0.730701	0.003922	0.453594
-14.144094	-0.379570	0.735706	0.003952	0.453513
-14.265447	-0.402092	0.740710	0.003978	0.453267
-14.141527	-0.454693	0.745715	0.003952	0.453261
-14.380992	-0.426083	0.750720	0.004002	0.453024
-14.558845	-0.371780	0.755725	0.004039	0.452960
-14.529745	-0.406583	0.760730	0.004033	0.452883
-14.755043	-0.385134	0.765734	0.004081	0.452641
-14.686671	-0.413200	0.770739	0.004066	0.452641
-14.851700	-0.404199	0.775744	0.004101	0.452441
-14.952580	-0.375876	0.780749	0.004122	0.452397
-15.083112	-0.385483	0.785754	0.004149	0.452181
-15.180826	-0.379857	0.790758	0.004170	0.452064
-15.184415	-0.413254	0.795763	0.004171	0.451945
-15.391566	-0.385595	0.800768	0.004214	0.451749
-15.315131	-0.436072	0.805773	0.004198	0.451684
-15.630921	-0.383440	0.810778	0.004265	0.451421
-15.648303	-0.412547	0.815782	0.004268	0.451298
-15.976833	-0.327309	0.820787	0.004337	0.451128
-15.795920	-0.402227	0.825792	0.004299	0.451126
-15.800736	-0.449558	0.830797	0.004300	0.450958
-16.093189	-0.377246	0.835802	0.004362	0.450794
-16.187802	-0.371372	0.840806	0.004381	0.450682
-16.182534	-0.429572	0.845811	0.004380	0.450490
-16.381493	-0.413070	0.850816	0.004422	0.450267
-16.360118	-0.449589	0.855821	0.004418	0.450172
-16.474258	-0.447220	0.860826	0.004442	0.450020
-16.771229	-0.368770	0.865830	0.004504	0.449871
-16.686910	-0.423000	0.870835	0.004486	0.449804
-16.969027	-0.385517	0.875840	0.004546	0.449535
-17.057069	-0.349911	0.880845	0.004564	0.449534
-17.047300	-0.399989	0.885850	0.004562	0.449376
-17.143273	-0.405437	0.890854	0.004582	0.449222
-17.265444	-0.384347	0.895859	0.004608	0.449122
-17.445959	-0.374598	0.900864	0.004646	0.448901
-17.508447	-0.348901	0.905869	0.004659	0.448902
-17.457431	-0.439389	0.910874	0.004648	0.448663
-17.505160	-0.465431	0.915878	0.004658	0.448506
-17.882395	-0.377428	0.920883	0.004738	0.448276
-17.801070	-0.422576	0.925888	0.004720	0.448236
-18.017928	-0.411269	0.930893	0.004766	0.447968
-18.026377	-0.408574	0.935898	0.004768	0.447966
-18.230995	-0.401819	0.940902	0.004811	0.447700
-18.307216	-0.383602	0.945907	0.004827	0.447655
-18.364025	-0.385825	0.950912	0.004839	0.447567
-18.599965	-0.346470	0.955917	0.004888	0.447369
-18.436113	-0.420832	0.960922	0.004854	0.447345
-18.729580	-0.392620	0.965926	0.004915	0.447027
-18.608171	-0.452115	0.970931	0.004890	0.446994
-19.035882	-0.359117	0.975936	0.004980	0.446708
-19.008380	-0.370651	0.980941	0.004974	0.446708
-19.048389	-0.398816	0.985946	0.004982	0.446554
-19.216422	-0.376467	0.990950	0.005018	0.446393
-19.223694	-0.394839	0.995955	0.005019	0.446319
-19.410784	-0.384216	1.000960	0.005059	0.446091

-19.333126	-0.384774	1.010957	0.005042	0.446200
-19.298397	-0.355430	1.020954	0.005035	0.446351
-19.082440	-0.383187	1.030950	0.004989	0.446562
-19.088217	-0.307107	1.040947	0.004990	0.446816
-18.758272	-0.351546	1.050944	0.004921	0.447131
-18.518609	-0.381962	1.060941	0.004870	0.447366
-18.332472	-0.381711	1.070938	0.004831	0.447631
-18.178870	-0.388273	1.080934	0.004799	0.447826
-18.048966	-0.334425	1.090931	0.004771	0.448196
-17.736568	-0.391668	1.100928	0.004706	0.448441
-17.543085	-0.396581	1.110925	0.004665	0.448698
-17.428036	-0.371903	1.120922	0.004641	0.448945
-17.149473	-0.407378	1.130918	0.004582	0.449217
-17.015875	-0.374390	1.140915	0.004554	0.449519
-16.766211	-0.380201	1.150912	0.004501	0.449851
-16.443741	-0.442649	1.160909	0.004433	0.450091
-16.427812	-0.382321	1.170906	0.004430	0.450321
-16.233925	-0.383803	1.180902	0.004389	0.450589
-15.942580	-0.393386	1.190899	0.004328	0.450966
-15.734914	-0.431696	1.200896	0.004284	0.451127
-15.587076	-0.406481	1.210893	0.004253	0.451421
-15.275328	-0.441899	1.220890	0.004187	0.451738
-15.084638	-0.468087	1.230886	0.004147	0.451916
-15.082174	-0.377514	1.240883	0.004146	0.452229
-14.728807	-0.439065	1.250880	0.004072	0.452515
-14.646239	-0.418988	1.260877	0.004054	0.452699
-14.321619	-0.463620	1.270874	0.003986	0.453002
-14.155981	-0.453733	1.280870	0.003951	0.453267
-14.086628	-0.370212	1.290867	0.003937	0.453648
-13.670857	-0.467976	1.300864	0.003849	0.453897
-13.575193	-0.427211	1.310861	0.003829	0.454169
-13.375276	-0.422404	1.320858	0.003787	0.454465
-13.041731	-0.476379	1.330854	0.003716	0.454747
-12.929808	-0.476823	1.340851	0.003693	0.454902
-12.723338	-0.484270	1.350848	0.003649	0.455164
-12.692936	-0.405749	1.360845	0.003643	0.455473
-12.420278	-0.404763	1.370842	0.003585	0.455855
-12.107461	-0.455789	1.380838	0.003520	0.456118
-12.019467	-0.400496	1.390835	0.003501	0.456427
-11.818797	-0.382371	1.400832	0.003459	0.456767
-11.590069	-0.383045	1.410829	0.003410	0.457082
-11.298196	-0.411570	1.420826	0.003349	0.457391
-11.164191	-0.392455	1.430822	0.003321	0.457641
-10.935677	-0.409298	1.440819	0.003273	0.457901
-10.679666	-0.432678	1.450816	0.003219	0.458177
-10.540150	-0.427064	1.460813	0.003189	0.458389
-10.358435	-0.423829	1.470810	0.003151	0.458651
-10.122216	-0.444363	1.480806	0.003101	0.458909
-9.947790	-0.422269	1.490803	0.003064	0.459224
-9.684495	-0.444697	1.500800	0.003009	0.459512
-9.518748	-0.446631	1.510797	0.002974	0.459734
-9.358576	-0.426558	1.520794	0.002940	0.460023
-9.163597	-0.410401	1.530790	0.002899	0.460345
-8.979625	-0.400738	1.540787	0.002860	0.460631
-8.728072	-0.416274	1.550784	0.002807	0.460925
-8.571101	-0.400856	1.560781	0.002774	0.461193
-8.218088	-0.473950	1.570778	0.002700	0.461434
-8.124330	-0.435679	1.580774	0.002680	0.461691
-7.947377	-0.421613	1.590771	0.002643	0.461980
-7.691508	-0.447403	1.600768	0.002589	0.462245
-7.487413	-0.454631	1.610765	0.002546	0.462501
-7.328470	-0.468535	1.620762	0.002513	0.462673
-7.009464	-0.506058	1.630758	0.002445	0.462985
-6.997440	-0.458936	1.640755	0.002443	0.463159
-6.742831	-0.446727	1.650752	0.002389	0.463548
-6.476353	-0.474285	1.660749	0.002333	0.463820
-6.333312	-0.468730	1.670746	0.002303	0.464034
-6.067940	-0.515109	1.680742	0.002247	0.464243
-5.894805	-0.492262	1.690739	0.002210	0.464555
-5.725059	-0.491128	1.700736	0.002175	0.464790
-5.622815	-0.428065	1.710733	0.002153	0.465139
-5.249532	-0.505008	1.720730	0.002074	0.465393
-5.110831	-0.472642	1.730726	0.002045	0.465689
-4.882149	-0.487700	1.740723	0.001997	0.465950
-4.783858	-0.450778	1.750720	0.001976	0.466206
-4.528256	-0.475658	1.760717	0.001922	0.466471
-4.312050	-0.466201	1.770714	0.001877	0.466796
-4.117342	-0.457601	1.780710	0.001836	0.467089
-3.798458	-0.491058	1.790707	0.001769	0.467411
-3.642653	-0.508581	1.800704	0.001736	0.467565
-3.551648	-0.484263	1.810701	0.001717	0.467769
-3.287195	-0.504780	1.820698	0.001661	0.468059
-3.013121	-0.536663	1.830694	0.001603	0.468325
-3.000594	-0.464037	1.840691	0.001601	0.468582
-2.662463	-0.496177	1.850688	0.001529	0.468933
-2.482396	-0.499614	1.860685	0.001491	0.469165
-2.358773	-0.468010	1.870682	0.001465	0.469436
-2.051061	-0.497711	1.880678	0.001401	0.469754
-1.927283	-0.472036	1.890675	0.001374	0.470005
-1.800481	-0.433503	1.900672	0.001348	0.470303
-1.539659	-0.427792	1.910669	0.001293	0.470673
-1.496140	-0.341219	1.920666	0.001283	0.471015
-1.333830	-0.269454	1.930662	0.001249	0.471468
-1.285029	-0.120997	1.940659	0.001239	0.472019
-1.069413	-0.036802	1.950656	0.001193	0.472583
-0.972072	0.110341	1.960653	0.001173	0.473193
-0.767815	0.236279	1.970650	0.001130	0.473877
-0.663542	0.403820	1.980646	0.001108	0.474561
-0.582757	0.616650	1.990643	0.001091	0.475359
-0.448570	0.836254	2.000640	0.001062	0.476249
-0.424413	1.123698	2.010637	0.001057	0.477211
-0.254561	1.370914	2.020634	0.001021	0.478234
-0.174534	1.696679	2.030630	0.001004	0.479388
-0.124068	2.059506	2.040627	0.000994	0.480620
0.000000	2.361260	2.050624	0.000967	0.481750

0.176614	2.820687	2.055629	0.000930	0.483449
0.371181	2.968142	2.060634	0.000889	0.484173
0.265300	3.354179	2.065638	0.000911	0.485262
0.381627	4.081041	2.070643	0.000887	0.487716
0.609612	5.055524	2.075648	0.000838	0.491079
0.716421	6.147773	2.080653	0.000816	0.494632
0.919474	7.232536	2.085658	0.000773	0.498258
1.189361	8.311751	2.090662	0.000716	0.501925
1.409736	9.433876	2.095667	0.000669	0.505634
1.579991	10.555707	2.100672	0.000633	0.509253
1.713487	11.670251	2.105677	0.000605	0.512779
1.846663	12.789576	2.110682	0.000576	0.516295
2.027220	13.890430	2.115686	0.000538	0.519790
2.206487	14.976851	2.120691	0.000500	0.523217
2.364827	16.099982	2.125696	0.000467	0.526705
2.454878	17.228437	2.130701	0.000447	0.530103
2.645964	18.305752	2.135706	0.000407	0.533452
2.895191	19.398850	2.140710	0.000354	0.536894
2.888682	20.558969	2.145715	0.000355	0.540206
3.174033	21.613750	2.150720	0.000295	0.543538
3.190703	22.779619	2.155725	0.000291	0.546853
3.374740	23.854197	2.160730	0.000252	0.550084
3.522810	24.942786	2.165734	0.000221	0.553294
3.728469	26.051133	2.170739	0.000177	0.556605
3.813987	27.190294	2.175744	0.000159	0.559847
4.006280	28.259297	2.180749	0.000118	0.562997
4.144552	29.386944	2.185754	0.000089	0.566229
4.351855	30.495285	2.190758	0.000045	0.569467
4.361452	31.613571	2.195763	0.000043	0.572496
4.573235	32.698574	2.200768	-0.000002	0.575641
4.678397	33.815509	2.205773	-0.000024	0.578738
4.694899	34.954000	2.210778	-0.000028	0.581779
4.858389	36.012345	2.215782	-0.000063	0.584752
4.873799	37.159870	2.220787	-0.000066	0.587785
5.019405	38.247725	2.225792	-0.000097	0.590785
5.476892	39.249369	2.230797	-0.000194	0.593878
5.761314	40.415908	2.235802	-0.000254	0.597198
5.892716	41.547427	2.240806	-0.000282	0.600249
5.908901	42.672210	2.245811	-0.000285	0.603146
6.168414	43.745993	2.250816	-0.000340	0.606153
6.201886	44.883338	2.255821	-0.000347	0.609072
6.274036	45.993508	2.260826	-0.000363	0.611948
6.482099	47.070376	2.265830	-0.000407	0.614867
6.446878	48.206405	2.270835	-0.000400	0.617672
6.542532	49.313303	2.275840	-0.000420	0.620524
6.903087	50.339340	2.280845	-0.000496	0.623431
6.985326	51.504360	2.285850	-0.000514	0.626387
7.072150	52.601770	2.290854	-0.000532	0.629168
22.847509	50.461350	2.295859	-0.003851	0.639651
24.133042	54.144313	2.300864	-0.004122	0.649707
24.092417	55.843501	2.305869	-0.004114	0.653683
24.263758	57.026459	2.310874	-0.004150	0.656629
24.420267	58.139747	2.315878	-0.004184	0.659384
24.545636	59.251804	2.320883	-0.004210	0.662096
24.453344	60.389362	2.325888	-0.004191	0.664649
24.672629	61.447542	2.330893	-0.004237	0.667304
24.757391	62.586028	2.335898	-0.004255	0.670006
24.841185	63.686855	2.340902	-0.004273	0.672610
24.973095	64.775201	2.345907	-0.004301	0.675221
24.980114	65.917317	2.350912	-0.004303	0.677827
25.098500	66.990995	2.355917	-0.004328	0.680372
25.199564	68.078044	2.360922	-0.004350	0.682922
25.204861	69.207970	2.365926	-0.004351	0.685470
25.470729	70.246080	2.370931	-0.004407	0.688042
28.234619	70.903497	2.375936	-0.004989	0.692031
28.452178	72.414403	2.380941	-0.005035	0.695581
28.563877	73.596215	2.385946	-0.005059	0.698294
28.732877	74.684359	2.390950	-0.005095	0.700841
28.936318	75.806721	2.395955	-0.005138	0.703485
28.987628	76.931670	2.400960	-0.005149	0.705989
28.980377	78.052627	2.405965	-0.005147	0.708423
29.010372	79.145496	2.410970	-0.005154	0.710822
29.108047	80.233069	2.415974	-0.005175	0.713260
29.154214	81.351174	2.420979	-0.005185	0.715711
29.255370	82.431317	2.425984	-0.005206	0.718120
32.129332	82.953407	2.430989	-0.005811	0.721747
33.237356	84.463417	2.435994	-0.006045	0.725922
33.604807	85.675418	2.440998	-0.006122	0.728806
33.726639	86.850112	2.446003	-0.006148	0.731388
33.785193	87.967074	2.451008	-0.006161	0.733786
33.974493	89.056970	2.456013	-0.006201	0.736231
34.036179	90.181592	2.461018	-0.006214	0.738632
34.160589	91.265422	2.466022	-0.006240	0.740993
34.145301	92.380857	2.471027	-0.006237	0.743295
35.056469	93.329540	2.476032	-0.006429	0.746025
35.277575	94.546632	2.481037	-0.006476	0.748719
35.391476	95.686139	2.486042	-0.006500	0.751154
35.492167	96.777519	2.491046	-0.006522	0.753471
35.692392	97.886686	2.496051	-0.006564	0.755901
35.715500	99.003355	2.501056	-0.006569	0.758191
37.411875	99.775507	2.506061	-0.006926	0.761159
37.897866	101.155128	2.511066	-0.007029	0.764344
37.943571	102.301203	2.516070	-0.007039	0.766687
37.948875	103.421556	2.521075	-0.007040	0.768938
38.073029	104.521941	2.526080	-0.007067	0.771239
38.072449	105.618847	2.531085	-0.007067	0.773425
38.195069	106.714188	2.536090	-0.007093	0.775702
38.158122	107.845556	2.541094	-0.007085	0.777914
38.306547	108.907991	2.546099	-0.007117	0.780133
38.414525	110.037406	2.551104	-0.007140	0.782446
38.503987	111.128282	2.556109	-0.007159	0.784661
38.435557	112.262826	2.561114	-0.007145	0.786829
42.875192	112.460104	2.566118	-0.008079	0.790747
44.521492	114.216821	2.571123	-0.008426	0.795459
44.978689	115.447442	2.576128	-0.008522	0.798196
45.257490	116.612896	2.581133	-0.008581	0.800659
45.289302	117.764712	2.586138	-0.008588	0.802896
45.480116	118.831884	2.591142	-0.008628	0.805088
45.504855	119.969977	2.596147	-0.008634	0.807280
45.534106	121.071514	2.601152	-0.008640	0.809400
45.911465	122.095228	2.606157	-0.008720	0.811637
46.424473	123.204402	2.611162	-0.008828	0.814133
46.770062	124.304530	2.616166	-0.008901	0.816476
47.070355	125.455635	2.621171	-0.008964	0.818873
47.437284	126.521056	2.626176	-0.009042	0.821153
47.515672	127.690388	2.631181	-0.009059	0.823402
47.661128	128.760512	2.636186	-0.009089	0.825511
47.805088	129.881986	2.641190	-0.009120	0.827708
47.865653	130.996923	2.646195	-0.009133	0.829825
47.964206	132.093275	2.651200	-0.009154	0.831930
48.225307	133.152645	2.656205	-0.009209	0.834084
48.584782	134.260581	2.661210	-0.009285	0.836395
49.073204	135.328625	2.666214	-0.009388	0.838724
49.265511	136.483980	2.671219	-0.009429	0.840984
49.253711	137.622093	2.676224	-0.009427	0.843056
49.377244	138.695491	2.681229	-0.009453	0.845105
49.556405	139.792678	2.686234	-0.009491	0.847234
49.470802	140.929576	2.691238	-0.009473	0.849233
49.678943	142.007613	2.696243	-0.009517	0.851338
49.836561	143.099226	2.701248	-0.009550	0.853425
51.963400	143.752933	2.706253	-0.009998	0.856160
53.986750	145.119944	2.711258	-0.010424	0.860088
54.126580	146.392394	2.716262	-0.010454	0.862463
54.262205	147.520551	2.721267	-0.010483	0.864572
54.450204	148.625077	2.726272	-0.010522	0.866672
54.463573	149.749254	2.731277	-0.010525	0.868676
54.586410	150.836033	2.736282	-0.010552	0.870687
54.661039	151.941729	2.741286	-0.010568	0.872693
55.581990	152.791323	2.746291	-0.010762	0.874849
57.205526	153.974691	2.751296	-0.011103	0.878086
57.977767	155.143813	2.756301	-0.011266	0.880681
58.136229	156.339429	2.761306	-0.011300	0.882880
58.308220	157.412849	2.766310	-0.011336	0.884870
58.386155	158.552764	2.771315	-0.011353	0.886906
58.337152	159.693667	2.776320	-0.011343	0.888849
58.262995	160.788823	2.781325	-0.011327	0.890691
58.466157	161.839013	2.786330	-0.011370	0.892645
58.596431	162.949489	2.791334	-0.011398	0.894649
58.803168	164.031245	2.796339	-0.011442	0.896652
59.420075	165.090868	2.801344	-0.011572	0.898898
59.669414	166.264398	2.806349	-0.011625	0.901077
59.686997	167.382433	2.811354	-0.011629	0.902997
60.144562	168.364975	2.816358	-0.011725	0.904986
61.575652	169.411841	2.821363	-0.012026	0.907750
62.049422	170.628141	2.826368	-0.012126	0.910134
62.229126	171.771065	2.831373	-0.012164	0.912188
62.444045	172.867382	2.836378	-0.012210	0.914182
62.617084	173.959596	2.841382	-0.012247	0.916137
62.851944	175.078343	2.846387	-0.012296	0.918173
63.314526	176.106895	2.851392	-0.012394	0.920210
63.749130	177.256436	2.856397	-0.012485	0.922424
63.988240	178.374849	2.861402	-0.012536	0.924449
63.945136	179.528467	2.866406	-0.012527	0.926338
63.912123	180.615942	2.871411	-0.012521	0.928121
64.113887	181.679040	2.876416	-0.012563	0.930017
64.199872	182.814251	2.881421	-0.012582	0.931951
64.255662	183.903086	2.886426	-0.012594	0.933784
64.339125	184.996171	2.891430	-0.012611	0.935639
64.435790	186.121288	2.896435	-0.012632	0.937552
64.561708	187.205325	2.901440	-0.012659	0.939413
64.665719	188.328824	2.906445	-0.012681	0.941320
64.747576	189.403390	2.911450	-0.012698	0.943129
65.697317	190.393640	2.916454	-0.012898	0.945370
66.518354	191.498546	2.921459	-0.013071	0.947707
66.797530	192.730054	2.926464	-0.013130	0.949888
67.195898	193.755861	2.931469	-0.013214	0.951809
67.856347	194.845465	2.936474	-0.013354	0.954001
68.772710	195.887949	2.941478	-0.013547	0.956278
69.110489	197.116371	2.946483	-0.013618	0.958472
69.102637	198.253212	2.951488	-0.013617	0.960290
69.271712	199.339576	2.956493	-0.013652	0.962139
69.217326	200.446600	2.961498	-0.013641	0.963872
69.303168	201.549306	2.966502	-0.013660	0.965686
69.495992	202.632990	2.971507	-0.013700	0.967535
69.469659	203.773039	2.976512	-0.013695	0.969329
69.614332	204.833130	2.981517	-0.013726	0.971103
69.686270	205.947449	2.986522	-0.013741	0.972913
69.841894	207.036921	2.991526	-0.013774	0.974734
70.016262	208.145787	2.996531	-0.013811	0.976594
71.073727	209.104760	3.001536	-0.014034	0.978777
71.793732	210.286807	3.006541	-0.014186	0.981090
72.299393	211.393805	3.011546	-0.014292	0.983145
72.553518	212.544510	3.016550	-0.014346	0.985105
72.421551	213.699982	3.021555	-0.014318	0.986824
72.545900	214.768983	3.026560	-0.014345	0.988567
72.588582	215.884891	3.031565	-0.014354	0.990329
72.638625	216.983227	3.036570	-0.014365	0.992065
72.844868	218.054077	3.041574	-0.014408	0.993854
73.118301	219.143620	3.046579	-0.014466	0.995710
74.171161	220.118026	3.051584	-0.014688	0.997871
74.786271	221.330764	3.056589	-0.014818	1.000122
74.821604	222.482776	3.061594	-0.014825	1.001914
74.875183	223.598479	3.066598	-0.014837	1.003659
75.068463	224.665654	3.071603	-0.014878	1.005413
75.031573	225.819437	3.076608	-0.014870	1.007154
75.395348	226.821375	3.081613	-0.014947	1.008907
76.164757	227.897023	3.086618	-0.015109	1.011020
76.583363	229.060162	3.091622	-0.015198	1.013045
76.750776	230.180197	3.096627	-0.015233	1.014847
76.884822	231.305119	3.101632	-0.015262	1.016632
76.997952	232.402236	3.106637	-0.015286	1.018360
77.294248	233.439596	3.111642	-0.015348	1.020106
78.074097	234.526032	3.116646	-0.015512	1.022218
78.449183	235.673209	3.121651	-0.015592	1.024170
78.741874	236.789499	3.126656	-0.015653	1.026023
78.749525	237.916043	3.131661	-0.015655	1.027715
80.000383	238.831961	3.136666	-0.015919	1.029840
80.217709	240.128883	3.141670	-0.015965	1.031906
80.474247	241.191921	3.146675	-0.016019	1.033644
80.667713	242.290206	3.151680	-0.016060	1.035393
80.741284	243.435471	3.156685	-0.016076	1.037137
80.721612	244.524874	3.161690	-0.016072	1.038740
80.818407	245.617931	3.166694	-0.016092	1.040415
80.989157	246.727149	3.171699	-0.016129	1.042155
81.023460	247.835362	3.176704	-0.016136	1.043810
81.394427	248.850091	3.181709	-0.016214	1.045524
82.385150	249.936463	3.186714	-0.016423	1.047709
82.951203	251.054655	3.191718	-0.016542	1.049684
83.557983	252.200657	3.196723	-0.016670	1.051720
83.523376	253.349473	3.201728	-0.016663	1.053378
83.685319	254.425303	3.206733	-0.016698	1.055043
83.659880	255.563008	3.211738	-0.016693	1.056685
83.742152	256.640763	3.216742	-0.016710	1.058301
84.046528	257.715271	3.221747	-0.016774	1.060040
84.076204	258.854603	3.226752	-0.016781	1.061709
84.247090	259.937552	3.231757	-0.016817	1.063376
84.509351	260.992837	3.236762	-0.016872	1.065054
85.125044	262.103916	3.241766	-0.017002	1.067015
85.546819	263.213938	3.246771	-0.017091	1.068859
85.686578	264.340356	3.251776	-0.017121	1.070559
86.428310	265.372631	3.256781	-0.017277	1.072471
86.696795	266.545786	3.261786	-0.017334	1.074307
86.855399	267.640141	3.266790	-0.017368	1.075963
86.982809	268.757901	3.271795	-0.017395	1.077633
87.086881	269.865971	3.276800	-0.017417	1.079273
87.379823	270.914030	3.281805	-0.017479	1.080933
87.614731	272.074410	3.286810	-0.017528	1.082718
87.959897	273.139997	3.291814	-0.017601	1.084427
87.959352	274.267284	3.296819	-0.017601	1.086025
88.025260	275.376826	3.301824	-0.017616	1.087632
88.192590	276.462188	3.306829	-0.017651	1.089261
88.208919	277.588195	3.311834	-0.017655	1.090859
88.251939	278.683419	3.316838	-0.017664	1.092426
88.339409	279.774426	3.321843	-0.017683	1.094010
88.305140	280.897356	3.326848	-0.017676	1.095568
88.384044	281.987430	3.331853	-0.017693	1.097142
88.426568	283.092558	3.336858	-0.017702	1.098713
88.463866	284.177666	3.341862	-0.017710	1.100252
88.687713	285.278218	3.346867	-0.017757	1.101915
89.328571	286.299848	3.351872	-0.017892	1.103700
90.170724	287.404599	3.356877	-0.018070	1.105710
90.556968	288.568909	3.361882	-0.018151	1.107544
90.520400	289.712609	3.366886	-0.018144	1.109110
90.564398	290.810615	3.371891	-0.018153	1.110656
90.628918	291.898690	3.376896	-0.018167	1.112197
90.528175	293.035275	3.381901	-0.018146	1.113712
90.722395	294.065054	3.386906	-0.018187	1.115240
90.791849	295.206089	3.391910	-0.018202	1.116851
91.697987	296.194600	3.396915	-0.018393	1.118713
92.334066	297.353862	3.401920	-0.018527	1.120657
92.642505	298.489500	3.406925	-0.018592	1.122384
93.121613	299.541594	3.411930	-0.018693	1.124088
93.960908	300.585523	3.416934	-0.018870	1.125977
95.072106	301.750790	3.421939	-0.019104	1.128177
95.200352	302.904733	3.426944	-0.019131	1.129819
95.523999	303.998780	3.431949	-0.019200	1.131483
95.656410	305.117839	3.436954	-0.019228	1.133075
95.708904	306.216978	3.441958	-0.019239	1.134594
95.941451	307.317774	3.446963	-0.019288	1.136212
96.106877	308.412581	3.451968	-0.019323	1.137782
96.290088	309.511504	3.456973	-0.019362	1.139366
96.312505	310.641263	3.461978	-0.019367	1.140901
96.259862	311.744702	3.466982	-0.019356	1.142359
96.370759	312.831225	3.471987	-0.019380	1.143880
96.665137	313.910751	3.476992	-0.019442	1.145489
96.799825	315.031699	3.481997	-0.019471	1.147065
96.884366	316.124059	3.487002	-0.019489	1.148574
97.451757	317.194499	3.492006	-0.019608	1.150311
97.519468	318.334437	3.497011	-0.019623	1.151870
97.647692	319.448814	3.502016	-0.019650	1.153425
97.752869	320.547241	3.507021	-0.019672	1.154945
97.873382	321.633905	3.512026	-0.019698	1.156455
98.502151	322.684096	3.517030	-0.019831	1.158186
98.834522	323.820577	3.522035	-0.019901	1.159870
99.280855	324.899959	3.527040	-0.019995	1.161538
99.686805	326.023632	3.532045	-0.020081	1.163240
99.965578	327.117354	3.537050	-0.020140	1.164832
100.493024	328.196658	3.542054	-0.020251	1.166535
101.001596	329.338556	3.547059	-0.020358	1.168308
101.112215	330.449331	3.552064	-0.020382	1.169827
101.460275	331.544772	3.557069	-0.020455	1.171449
101.494025	332.666449	3.562074	-0.020462	1.172938
101.553447	333.757729	3.567078	-0.020475	1.174399
101.878962	334.825654	3.572083	-0.020544	1.175967
102.476285	335.920904	3.577088	-0.020670	1.177711
102.693921	337.049240	3.582093	-0.020716	1.179296
103.011839	338.158074	3.587098	-0.020783	1.180907
103.042155	339.270827	3.592102	-0.020790	1.182371
103.453775	340.330791	3.597107	-0.020876	1.183963
103.910595	341.439657	3.602112	-0.020973	1.185639
104.018439	342.580185	3.607117	-0.020996	1.187173
104.072559	343.675314	3.612122	-0.021007	1.188618
104.158064	344.790809	3.617126	-0.021026	1.190104
104.043227	345.907282	3.622131	-0.021002	1.191486
104.216794	346.992201	3.627136	-0.021039	1.192975
104.276635	348.069940	3.632141	-0.021051	1.194394
104.398306	349.176093	3.637146	-0.021077	1.195879
104.429907	350.303117	3.642150	-0.021084	1.197343
104.422011	351.406423	3.647155	-0.021083	1.198755
104.707282	352.444692	3.652160	-0.021143	1.200232
105.003170	353.583085	3.657165	-0.021205	1.201841
105.073574	354.706288	3.662170	-0.021221	1.203313
104.951840	355.821676	3.667174	-0.021195	1.204674
105.146394	356.878250	3.672179	-0.021236	1.206121
105.166985	358.001876	3.677184	-0.021241	1.207563
105.226888	359.111576	3.682189	-0.021254	1.209005
105.287373	360.218159	3.687194	-0.021267	1.210442
105.362226	361.296142	3.692198	-0.021283	1.211848
105.655991	362.386876	3.697203	-0.021345	1.213380
106.138580	363.422866	3.702208	-0.021447	1.214937
107.285719	364.535538	3.707213	-0.021688	1.216925
107.657513	365.675127	3.712218	-0.021767	1.218551
107.877800	366.807682	3.717222	-0.021813	1.220090
108.237509	367.891792	3.722227	-0.021889	1.221637
108.285212	369.031243	3.727232	-0.021900	1.223094
108.507021	370.098372	3.732237	-0.021946	1.224545
108.772606	371.188128	3.737242	-0.022003	1.226046
108.945610	372.329248	3.742246	-0.022039	1.227562
109.048463	373.414667	3.747251	-0.022061	1.228972
109.248601	374.511202	3.752256	-0.022103	1.230443
109.736362	375.570985	3.757261	-0.022206	1.232010
110.374647	376.683104	3.762266	-0.022341	1.233715
111.073802	377.737511	3.767270	-0.022488	1.235377
111.795190	378.867157	3.772275	-0.022640	1.237140
112.278576	379.991843	3.777280	-0.022742	1.238777
112.850875	381.106378	3.782285	-0.022863	1.240443
112.971893	382.241693	3.787290	-0.022889	1.241909
112.933279	383.342887	3.792294	-0.022881	1.243251
112.909905	384.435736	3.797299	-0.022876	1.244590
113.096710	385.535260	3.802304	-0.022916	1.246039
112.978387	386.671472	3.807309	-0.022891	1.247382
113.075325	387.747591	3.812314	-0.022912	1.248754
113.187985	388.845251	3.817318	-0.022936	1.250160
113.183219	389.949577	3.822323	-0.022935	1.251515
113.151444	391.063489	3.827328	-0.022928	1.252866
113.247022	392.167363	3.832333	-0.022949	1.254266
113.377821	393.219838	3.837338	-0.022977	1.255619
113.463202	394.356234	3.842342	-0.022995	1.257051
113.526818	395.450332	3.847347	-0.023008	1.258419
113.622275	396.560231	3.852352	-0.023029	1.259821
114.264649	397.566414	3.857357	-0.023164	1.261361
115.183930	398.710248	3.862362	-0.023358	1.263201
115.365196	399.830957	3.867366	-0.023396	1.264652
115.739183	400.932095	3.872371	-0.023475	1.266171
115.956557	402.068362	3.877376	-0.023521	1.267654
116.119816	403.169060	3.882381	-0.023556	1.269067
116.099467	404.274677	3.887386	-0.023552	1.270395
116.309061	405.350786	3.892390	-0.023596	1.271798
116.784701	406.392549	3.897395	-0.023696	1.273285
117.655405	407.505307	3.902400	-0.023880	1.275047
118.057164	408.621909	3.907405	-0.023965	1.276586
118.703767	409.753798	3.912410	-0.024101	1.278258
118.970741	410.869113	3.917414	-0.024157	1.279726
119.013151	411.978777	3.922419	-0.024167	1.281078
119.115055	413.074257	3.927424	-0.024188	1.282441
119.030287	414.217583	3.932429	-0.024171	1.283769
119.078536	415.268747	3.937434	-0.024181	1.285050
119.177998	416.385854	3.942438	-0.024202	1.286432
119.241057	417.479965	3.947443	-0.024216	1.287769
119.181884	418.611576	3.952448	-0.024204	1.289090
119.191176	419.694089	3.957453	-0.024206	1.290384
119.278340	420.808521	3.962458	-0.024224	1.291752
119.339438	421.880334	3.967462	-0.024237	1.293055
119.280818	423.003446	3.972467	-0.024225	1.294362
119.579250	424.062512	3.977472	-0.024288	1.295760
119.657779	425.212478	3.982477	-0.024305	1.297160
120.012592	426.239463	3.987482	-0.024380	1.298543
120.698474	427.366843	3.992486	-0.024525	1.300200
120.837313	428.498200	3.997491	-0.024554	1.301602
120.915769	429.602533	4.002496	-0.024571	1.302942
120.909422	430.722882	4.007501	-0.024570	1.304260
121.051824	431.764481	4.012506	-0.024600	1.305553
121.404179	432.902753	4.017510	-0.024674	1.307058
121.438021	434.012794	4.022515	-0.024682	1.308378
121.537314	435.124393	4.027520	-0.024703	1.309729
121.595171	436.215429	4.032525	-0.024715	1.311035
121.689755	437.316188	4.037530	-0.024735	1.312369
121.603510	438.427878	4.042534	-0.024718	1.313630
123.031592	439.332758	4.047539	-0.025018	1.315354
123.953427	440.583995	4.052544	-0.025212	1.317243
123.969833	441.720003	4.057549	-0.025216	1.318575
124.091601	442.822242	4.062554	-0.025242	1.319916
124.128926	443.927123	4.067558	-0.025250	1.321218
124.133327	445.032740	4.072563	-0.025251	1.322506
124.318274	446.123041	4.077568	-0.025290	1.323857
124.301556	447.227180	4.082573	-0.025287	1.325130
124.521244	448.305950	4.087578	-0.025334	1.326482
124.545401	449.446627	4.092582	-0.025339	1.327814
124.700407	450.521968	4.097587	-0.025372	1.329129
124.830260	451.618543	4.102592	-0.025399	1.330456
124.944541	452.743116	4.107597	-0.025424	1.331806
125.118531	453.821983	4.112602	-0.025461	1.333130
125.629640	454.904567	4.117606	-0.025568	1.334612
125.711260	456.022430	4.122611	-0.025586	1.335935
125.979892	457.126210	4.127616	-0.025643	1.337327
126.191276	458.233611	4.132621	-0.025687	1.338695
126.410700	459.334818	4.137626	-0.025734	1.340059
126.655307	460.431369	4.142630	-0.025785	1.341427
126.960217	461.504987	4.147635	-0.025850	1.342795
127.353475	462.626184	4.152640	-0.025933	1.344256
127.346720	463.760900	4.157645	-0.025932	1.345550
127.533775	464.840708	4.162650	-0.025971	1.346867
127.566926	465.958716	4.167654	-0.025979	1.348157
127.516250	467.065812	4.172659	-0.025968	1.349395
127.619050	468.158889	4.177664	-0.025990	1.350685
127.719124	469.264719	4.182669	-0.026011	1.351988
127.708205	470.353707	4.187674	-0.026009	1.353220
127.730509	471.468165	4.192678	-0.026014	1.354494
127.808041	472.544469	4.197683	-0.026031	1.355750
127.825838	473.680474	4.202688	-0.026035	1.357044
127.923684	474.764583	4.207693	-0.026056	1.358315
127.814744	475.883858	4.212698	-0.026033	1.359531
127.978719	476.951310	4.217702	-0.026068	1.360811
127.998641	478.082714	4.222707	-0.026072	1.362096
128.117732	479.159652	4.227712	-0.026097	1.363364
128.088892	480.284318	4.232717	-0.026092	1.364618
128.069238	481.366655	4.237722	-0.026088	1.365827
129.062739	482.346011	4.242726	-0.026297	1.367372
130.337305	483.493398	4.247731	-0.026565	1.369230
131.116482	484.646297	4.252736	-0.026730	1.370870
131.309841	485.765737	4.257741	-0.026771	1.372210
131.365967	486.884420	4.262746	-0.026783	1.373487
131.531332	487.977059	4.267750	-0.026818	1.374782
131.532255	489.071323	4.272755	-0.026818	1.376004
131.688239	490.178087	4.277760	-0.026851	1.377309
131.661253	491.303958	4.282765	-0.026846	1.378552
131.620882	492.399981	4.287770	-0.026838	1.379755
131.828566	493.472825	4.292774	-0.026881	1.381041
131.812776	494.599935	4.297779	-0.026878	1.382287
131.965485	495.677089	4.302784	-0.026911	1.383551
131.978642	496.816262	4.307789	-0.026914	1.384821
132.130795	497.880522	4.312794	-0.026946	1.386068
132.126410	498.997456	4.317798	-0.026945	1.387303
132.095550	500.100366	4.322803	-0.026939	1.388510
132.124346	501.214832	4.327808	-0.026945	1.389755
132.171567	502.312100	4.332813	-0.026956	1.390988
132.199148	503.398925	4.337818	-0.026962	1.392200
132.256819	504.502929	4.342822	-0.026974	1.393443
132.288577	505.598963	4.347827	-0.026981	1.394665
132.429556	506.698253	4.352832	-0.027011	1.395937
132.690566	507.807145	4.357837	-0.027066	1.397270
132.733089	508.908072	4.362842	-0.027075	1.398499
133.010329	509.992279	4.367846	-0.027134	1.399810
133.257093	511.088731	4.372851	-0.027186	1.401120
133.280000	512.214942	4.377856	-0.027191	1.402364
133.272389	513.336023	4.382861	-0.027190	1.403588
133.486850	514.401724	4.387866	-0.027235	1.404847
133.467671	515.508950	4.392870	-0.027231	1.406049
133.629663	516.612966	4.397875	-0.027266	1.407325
133.709596	517.736032	4.402880	-0.027283	1.408585
133.747864	518.812346	4.407885	-0.027291	1.409775
134.350899	519.874029	4.412890	-0.027418	1.411191
134.567921	521.038177	4.417894	-0.027464	1.412552
134.637402	522.108505	4.422899	-0.027479	1.413745
134.677023	523.225554	4.427904	-0.027488	1.414975
134.914358	524.313193	4.432909	-0.027538	1.416258
135.324215	525.387478	4.437914	-0.027624	1.417599
135.561388	526.523550	4.442918	-0.027674	1.418931
135.991361	527.607243	4.447923	-0.027765	1.420288
136.193464	528.709895	4.452928	-0.027808	1.421567
136.293796	529.837225	4.457933	-0.027829	1.422827
136.362181	530.938467	4.462938	-0.027844	1.424045
136.562115	532.031083	4.467942	-0.027886	1.425308
136.972721	533.109624	4.472947	-0.027973	1.426645
137.043707	534.254826	4.477952	-0.027988	1.427908
137.350762	535.315581	4.482957	-0.028053	1.429179
137.394073	536.452922	4.487962	-0.028062	1.430420
137.431600	537.552963	4.492966	-0.028070	1.431616
137.540147	538.648351	4.497971	-0.028093	1.432837
137.559643	539.741399	4.502976	-0.028098	1.434017
137.596706	540.853770	4.507981	-0.028106	1.435223
137.771413	541.934716	4.512986	-0.028143	1.436454
137.910563	543.055886	4.517990	-0.028172	1.437711
137.888445	544.157630	4.522995	-0.028168	1.438878
137.807126	545.281676	4.528000	-0.028151	1.440043
138.119936	546.324958	4.533005	-0.028217	1.441288
138.270440	547.452795	4.538010	-0.028249	1.442552
138.259980	548.571509	4.543014	-0.028247	1.443739
138.319327	549.668324	4.548019	-0.028260	1.444930
138.478804	550.734771	4.553024	-0.028294	1.446130
138.509013	551.862500	4.558029	-0.028300	1.447340
138.696891	552.965971	4.563034	-0.028340	1.448590
139.127199	554.038098	4.568038	-0.028431	1.449906
139.465127	555.133811	4.573043	-0.028502	1.451208
139.710007	556.260563	4.578048	-0.028554	1.452503
139.795019	557.382729	4.583053	-0.028572	1.453725
139.806096	558.490637	4.588058	-0.028575	1.454899
140.196703	559.509392	4.593062	-0.028657	1.456137
140.926660	560.612280	4.598067	-0.028811	1.457605
141.457991	561.750619	4.603072	-0.028923	1.459025
141.652973	562.869676	4.608077	-0.028964	1.460284
141.799163	563.974476	4.613082	-0.028995	1.461506
141.985618	565.075470	4.618086	-0.029035	1.462740
142.034241	566.185892	4.623091	-0.029045	1.463926
142.290737	567.275871	4.628096	-0.029100	1.465175
142.527683	568.370742	4.633101	-0.029150	1.466420
142.851745	569.443502	4.638106	-0.029218	1.467678
143.307355	570.568739	4.643110	-0.029314	1.469043
143.443306	571.688823	4.648115	-0.029343	1.470270
143.565021	572.809842	4.653120	-0.029369	1.471490
143.675394	573.886775	4.658125	-0.029392	1.472659
143.824756	574.972702	4.663130	-0.029424	1.473853
143.762530	576.120768	4.668134	-0.029411	1.475023
143.824931	577.187416	4.673139	-0.029425	1.476159
143.914522	578.297917	4.678144	-0.029444	1.477350
144.028476	579.388139	4.683149	-0.029468	1.478530
144.067258	580.508699	4.688154	-0.029476	1.479709
144.164460	581.599842	4.693158	-0.029497	1.480881
144.185788	582.705010	4.698163	-0.029502	1.482036
144.262578	583.805101	4.703168	-0.029518	1.483207
144.235269	584.916463	4.708173	-0.029513	1.484346
144.623266	585.962045	4.713178	-0.029595	1.485585
144.827684	587.105853	4.718182	-0.029638	1.486851
144.796547	588.219326	4.723187	-0.029632	1.487988
144.770197	589.334168	4.728192	-0.029626	1.489127
144.894159	590.408328	4.733197	-0.029653	1.490285
144.910633	591.508408	4.738202	-0.029656	1.491425
145.044020	592.619126	4.743206	-0.029685	1.492622
144.987449	593.720653	4.748211	-0.029673	1.493732
145.128184	594.808545	4.753216	-0.029703	1.494907
145.196235	595.919976	4.758221	-0.029717	1.496076
145.083015	597.030093	4.763226	-0.029694	1.497169
145.331049	598.118609	4.768230	-0.029746	1.498386
145.361735	599.208434	4.773235	-0.029753	1.499515
145.627218	600.319094	4.778240	-0.029809	1.500759
145.626633	601.439971	4.783245	-0.029809	1.501905
145.642557	602.521263	4.788250	-0.029813	1.503017
145.708396	603.630134	4.793254	-0.029827	1.504176
145.736966	604.738532	4.798259	-0.029833	1.505318
146.058080	605.802114	4.803264	-0.029901	1.506532
146.118004	606.938215	4.808269	-0.029914	1.507714
146.198211	608.041759	4.813274	-0.029931	1.508870
146.100126	609.145178	4.818278	-0.029911	1.509953
146.261239	610.222624	4.823283	-0.029945	1.511113
146.384059	611.327138	4.828288	-0.029971	1.512284
146.942012	612.411151	4.833293	-0.030088	1.513608
147.158019	613.534104	4.838298	-0.030134	1.514833
147.273551	614.622636	4.843302	-0.030159	1.515982
147.417714	615.738372	4.848307	-0.030189	1.517170
147.369934	616.859915	4.853312	-0.030179	1.518285
147.539866	617.940243	4.858317	-0.030215	1.519445
147.783227	619.031448	4.863322	-0.030267	1.520644
147.882702	620.145549	4.868326	-0.030288	1.521809
148.011017	621.251022	4.873331	-0.030315	1.522975
148.379626	622.326455	4.878336	-0.030393	1.524205
148.391685	623.473724	4.883341	-0.030396	1.525365
148.583532	624.524589	4.888346	-0.030437	1.526499
148.593878	625.657966	4.893350	-0.030439	1.527643
148.716113	626.743882	4.898355	-0.030465	1.528782
148.843097	627.870619	4.903360	-0.030492	1.529964
148.934067	628.957054	4.908365	-0.030511	1.531090
149.183435	630.044501	4.913370	-0.030564	1.532278
149.413830	631.165617	4.918374	-0.030613	1.533492
149.576860	632.238742	4.923379	-0.030647	1.534631
149.849751	633.349054	4.928384	-0.030705	1.535849
150.096925	634.441418	4.933389	-0.030757	1.537038
150.257362	635.583597	4.938394	-0.030791	1.538242
150.302016	636.672968	4.943398	-0.030801	1.539346
150.362380	637.761646	4.948403	-0.030814	1.540455
150.517385	638.874339	4.953408	-0.030847	1.541625
150.694559	639.969944	4.958413	-0.030884	1.542785
150.756590	641.073023	4.963418	-0.030898	1.543907
150.757413	642.175273	4.968422	-0.030898	1.545003
150.862002	643.262742	4.973427	-0.030920	1.546124
150.965360	644.390220	4.978432	-0.030942	1.547284
151.066684	645.474986	4.983437	-0.030964	1.548400
151.295337	646.573916	4.988442	-0.031012	1.549578
151.429436	647.680094	4.993446	-0.031041	1.550726
151.578686	648.773915	4.998451	-0.031072	1.551867
151.616288	649.892495	5.003456	-0.031080	1.552988
151.724216	650.991952	5.008461	-0.031103	1.554116
151.787990	652.090651	5.013466	-0.031117	1.555226
151.965921	653.170538	5.018470	-0.031155	1.556361
152.018113	654.282396	5.023475	-0.031166	1.557478
152.148575	655.385024	5.028480	-0.031194	1.558615
152.312457	656.500406	5.033485	-0.031228	1.559777
152.414442	657.596279	5.038490	-0.031250	1.560895
152.333845	658.692398	5.043494	-0.031233	1.561941
152.489136	659.797326	5.048499	-0.031266	1.563087
152.679104	660.897109	5.053504	-0.031307	1.564240
152.887884	661.976204	5.058509	-0.031351	1.565380
153.190157	663.079903	5.063514	-0.031415	1.566579
153.269726	664.208556	5.068518	-0.031432	1.567715
153.363086	665.305034	5.073523	-0.031451	1.568824
153.540538	666.400851	5.078528	-0.031489	1.569965
153.512169	667.505148	5.083533	-0.031483	1.571033
153.691969	668.594663	5.088538	-0.031521	1.572167
154.130848	669.699135	5.093542	-0.031614	1.573413
154.270007	670.811058	5.098547	-0.031644	1.574551
154.742106	671.882338	5.103552	-0.031743	1.575776
154.905633	672.993673	5.108557	-0.031778	1.576921
155.265274	674.100828	5.113562	-0.031854	1.578136
155.303407	675.210084	5.118566	-0.031862	1.579230
155.600674	676.311474	5.123571	-0.031925	1.580414
155.717624	677.408594	5.128576	-0.031950	1.581524
155.955243	678.515106	5.133581	-0.032000	1.582688
156.020391	679.619426	5.138586	-0.032014	1.583784
156.101800	680.727652	5.143590	-0.032031	1.584889
156.249689	681.813459	5.148595	-0.032063	1.585996
156.413069	682.920939	5.153600	-0.032097	1.587130
156.409804	684.030455	5.158605	-0.032097	1.588202
156.362919	685.125534	5.163610	-0.032087	1.589242
156.552545	686.220105	5.168614	-0.032127	1.590371
156.711508	687.352484	5.173619	-0.032161	1.591524
156.781394	688.410111	5.178624	-0.032176	1.592570
156.915568	689.534444	5.183629	-0.032204	1.593705
157.020666	690.636498	5.188634	-0.032227	1.594805
157.189830	691.708025	5.193638	-0.032263	1.595901
157.123728	692.848356	5.198643	-0.032249	1.596972
157.214054	693.952879	5.203648	-0.032268	1.598068
157.334774	695.035038	5.208653	-0.032294	1.599152
157.424382	696.139295	5.213658	-0.032313	1.600246
157.535488	697.226128	5.218662	-0.032337	1.601330
157.648906	698.343458	5.223667	-0.032361	1.602443
157.816127	699.446357	5.228672	-0.032396	1.603563
157.857808	700.554965	5.233677	-0.032405	1.604639
158.016760	701.624189	5.238682	-0.032439	1.605721
158.283938	702.732929	5.243686	-0.032495	1.606881
158.334253	703.855862	5.248691	-0.032506	1.607973
158.712570	704.926161	5.253696	-0.032586	1.609136
158.934267	706.062898	5.258701	-0.032633	1.610303
159.026987	707.137077	5.263706	-0.032653	1.611361
159.059281	708.254878	5.268710	-0.032660	1.612438
159.131288	709.351132	5.273715	-0.032675	1.613508
159.228090	710.472399	5.278720	-0.032696	1.614610
159.668504	711.522150	5.283725	-0.032789	1.615772
159.971418	712.634782	5.288730	-0.032853	1.616942
160.018432	713.791068	5.293734	-0.032863	1.618057
160.184921	714.847646	5.298739	-0.032898	1.619121
160.284101	715.955579	5.303744	-0.032919	1.620208
160.527992	717.049272	5.308749	-0.032971	1.621334
160.806613	718.156757	5.313754	-0.033030	1.622485
160.967832	719.269200	5.318758	-0.033064	1.623597
161.058520	720.383499	5.323763	-0.033083	1.624684
161.120810	721.457126	5.328768	-0.033097	1.625721
161.235498	722.568000	5.333773	-0.033121	1.626812
161.363110	723.680717	5.338778	-0.033148	1.627909
161.402612	724.764306	5.343782	-0.033157	1.628945
161.481281	725.876350	5.348787	-0.033173	1.630022
161.690720	726.968609	5.353792	-0.033218	1.631127
161.764900	728.083955	5.358797	-0.033234	1.632204
161.777432	729.196967	5.363802	-0.033236	1.633255
162.044891	730.253565	5.368806	-0.033293	1.634346
162.277747	731.371243	5.373811	-0.033342	1.635481
162.513499	732.478486	5.378816	-0.033392	1.636606
162.629542	733.578650	5.383821	-0.033417	1.637681
162.701345	734.682062	5.388826	-0.033432	1.638741
162.808090	735.782201	5.393830	-0.033455	1.639810
163.098010	736.881800	5.398835	-0.033516	1.640945
163.119190	737.995114	5.403840	-0.033521	1.641994
163.224578	739.096735	5.408845	-0.033543	1.643062
163.389333	740.196266	5.413850	-0.033578	1.644149
163.340059	741.292842	5.418854	-0.033568	1.645155
163.333374	742.390313	5.423859	-0.033567	1.646176
163.628197	743.477518	5.428864	-0.033629	1.647297
163.629948	744.616205	5.433869	-0.033630	1.648358
163.795934	745.688845	5.438874	-0.033665	1.649417
163.872376	746.827139	5.443878	-0.033681	1.650504
164.111712	747.846542	5.448883	-0.033732	1.651539
164.470492	749.006500	5.453888	-0.033808	1.652747
164.803436	750.088722	5.458893	-0.033878	1.653872
164.826292	751.195119	5.463898	-0.033883	1.654907
165.121749	752.299175	5.468902	-0.033945	1.656038
165.411462	753.383573	5.473907	-0.034007	1.657148
165.460581	754.521054	5.478912	-0.034017	1.658219
165.652929	755.604963	5.483917	-0.034058	1.659291
165.886076	756.697323	5.488922	-0.034107	1.660386
165.843194	757.813063	5.493926	-0.034098	1.661401
166.163922	758.904494	5.498931	-0.034166	1.662525
166.640616	759.996543	5.503936	-0.034267	1.663705
167.032094	761.099978	5.508941	-0.034349	1.664864
167.296834	762.187933	5.513946	-0.034405	1.665962
167.511416	763.321218	5.518950	-0.034451	1.667083
167.539674	764.440261	5.523955	-0.034457	1.668123
167.647680	765.507454	5.528960	-0.034480	1.669143
167.684201	766.640809	5.533965	-0.034488	1.670198
167.763197	767.714098	5.538970	-0.034505	1.671212
167.931383	768.813597	5.543974	-0.034540	1.672282
167.959014	769.946807	5.548979	-0.034546	1.673332
168.128506	771.013907	5.553984	-0.034582	1.674371
168.182287	772.148903	5.558989	-0.034594	1.675430
168.115632	773.212654	5.563994	-0.034580	1.676380
168.255283	774.331028	5.568998	-0.034610	1.677454
168.372352	775.437298	5.574003	-0.034635	1.678508
168.380361	776.540249	5.579008	-0.034636	1.679519
168.552888	777.635179	5.584013	-0.034673	1.680580
168.660097	778.735661	5.589018	-0.034696	1.681623
168.879641	779.819869	5.594022	-0.034742	1.682691
169.357316	780.904252	5.599027	-0.034843	1.683850
169.879628	782.031075	5.604032	-0.034953	1.685062
170.181575	783.111634	5.609037	-0.035017	1.686153
170.434683	784.241912	5.614042	-0.035070	1.687271
170.444803	785.356224	5.619046	-0.035073	1.688288
170.635209	786.434362	5.624051	-0.035113	1.689336
170.838885	787.541232	5.629056	-0.035156	1.690413
171.312982	788.620955	5.634061	-0.035256	1.691561
171.683857	789.740288	5.639066	-0.035335	1.692707
171.731591	790.858035	5.644070	-0.035345	1.693737
171.977543	791.930871	5.649075	-0.035397	1.694796
172.197988	793.054941	5.654080	-0.035443	1.695891
172.424732	794.150419	5.659085	-0.035491	1.696962
172.465064	795.250616	5.664090	-0.035500	1.697971
172.659853	796.353115	5.669094	-0.035541	1.699036
172.906788	797.451940	5.674099	-0.035594	1.700115
173.013316	798.549873	5.679104	-0.035616	1.701143
173.165671	799.657297	5.684109	-0.035649	1.702195
173.374571	800.768877	5.689114	-0.035693	1.703271
173.386360	801.871553	5.694118	-0.035696	1.704268
173.466696	802.973657	5.699123	-0.035713	1.705288
173.595999	804.038436	5.704128	-0.035740	1.706291
173.642711	805.171327	5.709133	-0.035750	1.707326
173.644360	806.282163	5.714138	-0.035751	1.708325
173.821445	807.374316	5.719142	-0.035788	1.709368
173.769523	808.487875	5.724147	-0.035778	1.710349
173.898838	809.565212	5.729152	-0.035805	1.711361
173.840451	810.686396	5.734157	-0.035793	1.712345
173.932590	811.787385	5.739162	-0.035813	1.713364
173.851315	812.876217	5.744166	-0.035796	1.714310
173.990795	813.979443	5.749171	-0.035825	1.715346
173.948254	815.078153	5.754176	-0.035817	1.716314
173.941191	816.183392	5.759181	-0.035816	1.717300
174.007160	817.278125	5.764186	-0.035830	1.718301
174.128981	818.384294	5.769190	-0.035856	1.719330
174.236255	819.502602	5.774195	-0.035878	1.720366
174.379628	820.571134	5.779200	-0.035909	1.721368
174.399235	821.680809	5.784205	-0.035913	1.722364
174.477649	822.792430	5.789210	-0.035930	1.723381
174.617384	823.908222	5.794214	-0.035960	1.724423
174.640136	824.977943	5.799219	-0.035965	1.725382
174.900604	826.072522	5.804224	-0.036020	1.726446
175.043909	827.200451	5.809229	-0.036050	1.727498
175.203054	828.286897	5.814234	-0.036084	1.728517
175.482293	829.378141	5.819238	-0.036143	1.729582
175.510491	830.512022	5.824243	-0.036149	1.730598
175.594905	831.604795	5.829248	-0.036167	1.731596
175.840284	832.682125	5.834253	-0.036219	1.732635
175.914098	833.803641	5.839258	-0.036235	1.733653
175.916392	834.919426	5.844262	-0.036235	1.734641
175.909073	836.001448	5.849267	-0.036234	1.735595
175.996443	837.082210	5.854272	-0.036253	1.736581
176.674496	838.176579	5.859277	-0.036396	1.737780
176.935599	839.297871	5.864282	-0.036451	1.738860
177.046416	840.420146	5.869286	-0.036474	1.739888
177.238632	841.496940	5.874291	-0.036515	1.740903
177.419249	842.605686	5.879296	-0.036553	1.741942
177.480540	843.705507	5.884301	-0.036566	1.742932
177.693485	844.817979	5.889306	-0.036612	1.743984
177.979555	845.894235	5.894310	-0.036672	1.745028
178.097299	847.033631	5.899315	-0.036697	1.746070
178.114074	848.111141	5.904320	-0.036701	1.747022
178.356270	849.207087	5.909325	-0.036752	1.748067
178.414122	850.328246	5.914330	-0.036764	1.749071
178.558901	851.417708	5.919334	-0.036795	1.750075
178.747052	852.527504	5.924339	-0.036835	1.751112
178.763283	853.627805	5.929344	-0.036839	1.752082
178.952238	854.720824	5.934349	-0.036879	1.753103
178.999189	855.821697	5.939354	-0.036889	1.754082
179.023800	856.923126	5.944358	-0.036894	1.755054
179.071527	858.037096	5.949363	-0.036904	1.756044
179.242357	859.136247	5.954368	-0.036941	1.757062
179.406646	860.201061	5.959373	-0.036975	1.758047
179.522339	861.340334	5.964378	-0.037000	1.759080
179.793580	862.419008	5.969382	-0.037057	1.760113
179.857110	863.554143	5.974387	-0.037071	1.761123
179.923821	864.623812	5.979392	-0.037085	1.762078
180.090447	865.743182	5.984397	-0.037121	1.763108
180.033601	866.841065	5.989402	-0.037109	1.764044
180.175128	867.937032	5.994406	-0.037139	1.765045
180.188667	869.053335	5.999411	-0.037142	1.766020
180.266113	870.134485	6.004416	-0.037159	1.766985
180.326349	871.247390	6.009421	-0.037172	1.767971
180.458453	872.341860	6.014426	-0.037200	1.768965
180.472104	873.448733	6.019430	-0.037203	1.769930
180.628497	874.564608	6.024435	-0.037236	1.770949
180.445222	875.652156	6.029440	-0.037198	1.771830
180.682380	876.743376	6.034445	-0.037248	1.772854
180.726750	877.864607	6.039450	-0.037257	1.773839
180.878571	878.935399	6.044454	-0.037289	1.774816
181.014104	880.069692	6.049459	-0.037318	1.775842
181.343319	881.123408	6.054464	-0.037388	1.776862
181.498141	882.245640	6.059469	-0.037421	1.777883
181.606775	883.371811	6.064474	-0.037444	1.778891
181.714568	884.455152	6.069478	-0.037467	1.779861
181.904313	885.558612	6.074483	-0.037507	1.780875
181.978951	886.667318	6.079488	-0.037523	1.781855
182.243555	887.727127	6.084493	-0.037579	1.782856
182.775060	888.841504	6.089498	-0.037691	1.783992
182.944336	889.965854	6.094502	-0.037727	1.785015
183.114814	891.081525	6.099507	-0.037763	1.786030
183.330479	892.149270	6.104512	-0.037808	1.787019
183.393226	893.266924	6.109517	-0.037822	1.787999
183.465491	894.372235	6.114522	-0.037837	1.788971
183.509843	895.475688	6.119526	-0.037847	1.789932
183.565356	896.593461	6.124531	-0.037859	1.790908
183.635944	897.657701	6.129536	-0.037874	1.791843
184.011493	898.761067	6.134541	-0.037953	1.792912
184.139888	899.879901	6.139546	-0.037980	1.793912
184.286927	900.969889	6.144550	-0.038012	1.794892
184.408449	902.098903	6.149555	-0.038037	1.795897
184.467880	903.180227	6.154560	-0.038050	1.796840
185.029244	904.249950	6.159565	-0.038169	1.797939
185.240124	905.375126	6.164570	-0.038213	1.798969
185.747760	906.452583	6.169574	-0.038320	1.800055
185.965200	907.567692	6.174579	-0.038366	1.801077
186.307478	908.685225	6.179584	-0.038438	1.802141
186.354469	909.792695	6.184589	-0.038449	1.803099
186.532369	910.880932	6.189594	-0.038486	1.804083
186.614554	912.001165	6.194598	-0.038504	1.805063
186.705082	913.101524	6.199603	-0.038523	1.806027
186.858312	914.167010	6.204608	-0.038556	1.806982
186.872957	915.301634	6.209613	-0.038559	1.807950
187.112527	916.380202	6.214618	-0.038610	1.808944
187.228182	917.497614	6.219622	-0.038634	1.809929
187.528790	918.585199	6.224627	-0.038698	1.810949
187.718934	919.695012	6.229632	-0.038738	1.811951
187.960182	920.801033	6.234637	-0.038789	1.812967
187.974354	921.909561	6.239642	-0.038792	1.813909
187.998207	923.003658	6.244646	-0.038797	1.814842
188.126725	924.114939	6.249651	-0.038825	1.815823
188.279469	925.179214	6.254656	-0.038857	1.816772
188.399238	926.298272	6.259661	-0.038883	1.817755
188.573315	927.408442	6.264666	-0.038919	1.818749
188.605347	928.520487	6.269670	-0.038926	1.819697
188.911425	929.610168	6.274675	-0.038991	1.820715
188.922675	930.706077	6.279680	-0.038994	1.821642
189.002585	931.817179	6.284685	-0.039011	1.822603
189.056479	932.906840	6.289690	-0.039022	1.823538
189.252716	934.010009	6.294694	-0.039064	1.824529
189.434714	935.116733	6.299699	-0.039102	1.825519
189.411991	936.220511	6.304704	-0.039098	1.826438
189.434263	937.319911	6.309709	-0.039103	1.827369
189.586530	938.422112	6.314714	-0.039135	1.828343
189.735924	939.522701	6.319718	-0.039167	1.829315
189.764965	940.622917	6.324723	-0.039173	1.830246
189.770051	941.728669	6.329728	-0.039175	1.831175
189.771090	942.835428	6.334733	-0.039175	1.832102
189.867650	943.931406	6.339738	-0.039196	1.833051
189.986672	945.018926	6.344742	-0.039221	1.833999
190.223233	946.129055	6.349747	-0.039271	1.835003
190.619648	947.221282	6.354752	-0.039355	1.836044
190.845639	948.291810	6.359757	-0.039402	1.837011
191.281450	949.404274	6.364762	-0.039494	1.838080
192.067365	950.505122	6.369766	-0.039660	1.839252
192.189318	951.656481	6.374771	-0.039686	1.840251
192.325966	952.739676	6.379776	-0.039715	1.841198
192.646107	953.814124	6.384781	-0.039782	1.842195
192.681109	954.936836	6.389786	-0.039790	1.843141
192.949449	956.029755	6.394790	-0.039847	1.844137
193.046880	957.161128	6.399795	-0.039867	1.845109
193.148548	958.248838	6.404800	-0.039889	1.846045
193.404563	959.308207	6.409805	-0.039943	1.847007
193.515140	960.438981	6.414810	-0.039967	1.847982
193.646601	961.575683	6.419814	-0.039995	1.848967
193.631654	962.645813	6.424819	-0.039992	1.849850
193.805636	963.733604	6.429824	-0.040029	1.850807
193.938604	964.857990	6.434829	-0.040057	1.851781
193.922213	965.959718	6.439834	-0.040054	1.852688
194.012289	967.059404	6.444838	-0.040073	1.853627
193.939952	968.160396	6.449843	-0.040058	1.854515
194.024826	969.269632	6.454848	-0.040076	1.855459
194.251675	970.327730	6.459853	-0.040124	1.856406
194.276884	971.459449	6.464858	-0.040130	1.857349
194.381326	972.556093	6.469862	-0.040152	1.858287
194.485941	973.653628	6.474867	-0.040174	1.859226
194.615705	974.783324	6.479872	-0.040202	1.860199
194.703573	975.851560	6.484877	-0.040220	1.861108
194.664014	976.971541	6.489882	-0.040212	1.862018
194.717429	978.077272	6.494886	-0.040224	1.862946
194.711684	979.161407	6.499891	-0.040223	1.863836
194.821294	980.273158	6.504896	-0.040246	1.864786
194.829408	981.375431	6.509901	-0.040248	1.865694
194.758593	982.461540	6.514906	-0.040233	1.866565
194.896232	983.562861	6.519910	-0.040263	1.867513
195.090061	984.674506	6.524915	-0.040304	1.868487
195.288656	985.772767	6.529920	-0.040346	1.869451
195.586049	986.864239	6.534925	-0.040409	1.870440
196.020802	987.967079	6.539930	-0.040500	1.871482
196.110871	989.062373	6.544934	-0.040519	1.872408
196.301367	990.179998	6.549939	-0.040560	1.873383
196.468602	991.280885	6.554944	-0.040595	1.874337
196.637110	992.396009	6.559949	-0.040631	1.875302
196.699114	993.477706	6.564954	-0.040644	1.876206
196.950481	994.549320	6.569958	-0.040697	1.877161
197.023709	995.701592	6.574963	-0.040713	1.878125
197.008083	996.790754	6.579968	-0.040710	1.879009
196.944032	997.895238	6.584973	-0.040697	1.879891
197.088874	998.991803	6.589978	-0.040727	1.880830
197.203909	1000.091039	6.594982	-0.040752	1.881763
197.251903	1001.192694	6.599987	-0.040762	1.882675
197.385573	1002.298545	6.604992	-0.040791	1.883618
197.527479	1003.386084	6.609997	-0.040821	1.884548
197.610852	1004.488272	6.615002	-0.040839	1.885471
197.842431	1005.582578	6.620006	-0.040888	1.886433
198.020627	1006.688818	6.625011	-0.040925	1.887388
198.153026	1007.814432	6.630016	-0.040953	1.888344
198.286819	1008.888767	6.635021	-0.040982	1.889258
198.340746	1010.003993	6.640026	-0.040993	1.890180
198.354022	1011.103264	6.645030	-0.040996	1.891075
198.599109	1012.195183	6.650035	-0.041048	1.892037
198.677052	1013.314804	6.655040	-0.041065	1.892969
198.666664	1014.405729	6.660045	-0.041063	1.893849
198.770403	1015.510752	6.665050	-0.041085	1.894776
199.019849	1016.601619	6.670054	-0.041138	1.895736
199.065291	1017.692563	6.675059	-0.041148	1.896633
199.114026	1018.830863	6.680064	-0.041158	1.897568
199.303109	1019.886803	6.685069	-0.041198	1.898480
199.317414	1021.025938	6.690074	-0.041201	1.899405
199.391660	1022.107196	6.695078	-0.041217	1.900300
199.634355	1023.228173	6.700083	-0.041269	1.901280
199.921685	1024.295849	6.705088	-0.041329	1.902230
200.011152	1025.414389	6.710093	-0.041348	1.903159
200.297111	1026.509174	6.715098	-0.041409	1.904130
200.490866	1027.625855	6.720102	-0.041450	1.905089
200.670984	1028.722193	6.725107	-0.041488	1.906027
200.889192	1029.797301	6.730112	-0.041534	1.906959
200.992757	1030.938968	6.735117	-0.041556	1.907909
201.088073	1032.026299	6.740122	-0.041576	1.908812
201.240507	1033.124502	6.745126	-0.041609	1.909741
201.390476	1034.229669	6.750131	-0.041641	1.910675
201.355262	1035.339969	6.755136	-0.041633	1.911555
201.387380	1036.447114	6.760141	-0.041640	1.912453
201.515816	1037.522287	6.765146	-0.041668	1.913354
201.430913	1038.635274	6.770150	-0.041650	1.914220
201.590877	1039.738576	6.775155	-0.041684	1.915153
201.726696	1040.852504	6.780160	-0.041713	1.916086
201.823853	1041.905350	6.785165	-0.041733	1.916959
202.037948	1043.038767	6.790170	-0.041779	1.917931
202.150030	1044.146916	6.795174	-0.041803	1.918851
202.537424	1045.217204	6.800179	-0.041884	1.919825
202.710360	1046.332880	6.805184	-0.041921	1.920769
202.980063	1047.431192	6.810189	-0.041978	1.921728
203.142069	1048.557148	6.815194	-0.042012	1.922676
203.455442	1049.618779	6.820198	-0.042079	1.923618
203.602548	1050.760655	6.825203	-0.042110	1.924573
203.893635	1051.826738	6.830208	-0.042171	1.925512
203.847761	1052.956166	6.835213	-0.042162	1.926397
203.829256	1054.048922	6.840218	-0.042158	1.927261
203.975631	1055.154900	6.845222	-0.042189	1.928185
204.055053	1056.255303	6.850227	-0.042206	1.929084
204.184809	1057.356192	6.855232	-0.042234	1.929999
204.186656	1058.454387	6.860237	-0.042234	1.930872
204.286809	1059.550592	6.865242	-0.042256	1.931773
204.430778	1060.651589	6.870246	-0.042286	1.932690
204.869756	1061.748527	6.875251	-0.042379	1.933694
205.017997	1062.866786	6.880256	-0.042410	1.934625
205.230052	1063.951704	6.885261	-0.042455	1.935549
205.307829	1065.075244	6.890266	-0.042472	1.936463
205.529720	1066.154168	6.895270	-0.042519	1.937384
205.647698	1067.255122	6.900275	-0.042544	1.938291
205.791781	1068.357871	6.905280	-0.042574	1.939207
206.037821	1069.471296	6.910285	-0.042626	1.940162
206.137708	1070.555158	6.915290	-0.042648	1.941049
206.202848	1071.679539	6.920294	-0.042662	1.941956
206.282969	1072.776174	6.925299	-0.042679	1.942846
206.372644	1073.871847	6.930304	-0.042698	1.943738
206.436860	1074.967499	6.935309	-0.042712	1.944621
206.443090	1076.064478	6.940314	-0.042713	1.945488
206.594319	1077.186480	6.945318	-0.042745	1.946418
206.876979	1078.288468	6.950323	-0.042805	1.947371
206.986883	1079.371320	6.955328	-0.042828	1.948256
207.398330	1080.455339	6.960333	-0.042915	1.949233
207.915073	1081.550328	6.965338	-0.043024	1.950250
208.260210	1082.683897	6.970342	-0.043097	1.951245
208.488351	1083.773670	6.975347	-0.043145	1.952170
208.566852	1084.891257	6.980352	-0.043162	1.953071
208.734733	1085.982733	6.985357	-0.043198	1.953978
208.875422	1087.095312	6.990362	-0.043227	1.954893
209.171575	1088.173252	6.995366	-0.043290	1.955827
209.216249	1089.315722	7.000371	-0.043300	1.956736
209.422788	1090.374682	7.005376	-0.043343	1.957627
209.613530	1091.489470	7.010381	-0.043384	1.958557
209.611013	1092.592972	7.015386	-0.043383	1.959420
209.833142	1093.690670	7.020390	-0.043430	1.960346
210.094331	1094.794169	7.025395	-0.043486	1.961286
210.505573	1095.874639	7.030400	-0.043572	1.962254
210.764858	1096.981472	7.035405	-0.043627	1.963196
210.818822	1098.107614	7.040410	-0.043639	1.964091
210.902944	1099.214347	7.045414	-0.043657	1.964980
211.004271	1099.976569	7.050419	-0.043678	1.965605
211.157779	1099.987868	7.055424	-0.043711	1.965660

211.196935	1100.002461	7.060429	-0.043719	1.965683
211.195560	1099.997124	7.065434	-0.043719	1.965678
211.269025	1099.992596	7.070438	-0.043734	1.965697
211.488624	1099.964620	7.075443	-0.043780	1.965740
211.551454	1100.001387	7.080448	-0.043794	1.965788
211.606309	1099.988964	7.085453	-0.043805	1.965794
211.570736	1100.008311	7.090458	-0.043798	1.965799
211.521797	1099.989734	7.095462	-0.043787	1.965770
211.646715	1100.003966	7.100467	-0.043814	1.965818
211.691407	1099.999431	7.105472	-0.043823	1.965828
211.738336	1100.007852	7.110477	-0.043833	1.965849
211.727750	1099.984619	7.115482	-0.043831	1.965828
211.798272	1100.003036	7.120486	-0.043846	1.965863
211.746050	1099.999925	7.125491	-0.043835	1.965845
211.781543	1100.014320	7.130496	-0.043842	1.965867
211.831425	1099.989586	7.135501	-0.043853	1.965863
211.841694	1100.002216	7.140506	-0.043855	1.965876
211.972848	1099.993650	7.145510	-0.043883	1.965908
211.873506	1099.998345	7.150515	-0.043862	1.965882
211.900814	1099.989247	7.155520	-0.043868	1.965883
211.988680	1100.005238	7.160525	-0.043886	1.965922
211.966725	1100.015576	7.165530	-0.043882	1.965923
212.064421	1099.983972	7.170534	-0.043902	1.965928
212.049639	1100.008982	7.175539	-0.043899	1.965943
212.108135	1099.994967	7.180544	-0.043911	1.965950
211.962834	1100.007023	7.185549	-0.043881	1.965916
212.053322	1099.996590	7.190554	-0.043900	1.965935
212.165676	1099.984204	7.195558	-0.043924	1.965959
212.187176	1100.011958	7.200563	-0.043928	1.965987
212.147661	1100.006389	7.205568	-0.043920	1.965971
212.083924	1099.994667	7.210573	-0.043906	1.965942
212.197800	1100.015129	7.215578	-0.043930	1.965992
212.208185	1099.979272	7.220582	-0.043933	1.965968
212.188018	1100.011347	7.225587	-0.043928	1.965987
212.236362	1099.994407	7.230592	-0.043939	1.965988
212.245308	1099.984323	7.235597	-0.043941	1.965983
212.183440	1100.031540	7.240602	-0.043928	1.966001
212.291195	1099.978274	7.245606	-0.043950	1.965992
212.302196	1100.002436	7.250611	-0.043953	1.966014
212.379125	1099.987379	7.255616	-0.043969	1.966025
212.337440	1100.021275	7.260621	-0.043960	1.966039
212.140058	1100.015806	7.265626	-0.043919	1.965976
212.287914	1099.972632	7.270630	-0.043950	1.965987
212.222427	1100.022234	7.275635	-0.043936	1.966006
212.285348	1099.987510	7.280640	-0.043949	1.965998
212.268860	1100.002764	7.285645	-0.043946	1.966005
212.322063	1099.996178	7.290650	-0.043957	1.966015
212.253907	1099.998555	7.295654	-0.043943	1.965997
212.275633	1100.008208	7.300659	-0.043947	1.966011
212.270630	1100.014066	7.305664	-0.043946	1.966014
212.263285	1099.995797	7.310669	-0.043945	1.965998
212.356101	1099.976068	7.315674	-0.043964	1.966010
212.400750	1099.992371	7.320678	-0.043974	1.966036
212.368220	1100.004749	7.325683	-0.043967	1.966036
212.360326	1100.003706	7.330688	-0.043965	1.966033
212.388668	1100.004223	7.335693	-0.043971	1.966042
212.306693	1100.007279	7.340698	-0.043954	1.966020
212.432711	1099.987068	7.345702	-0.043981	1.966042
212.468255	1099.995842	7.350707	-0.043988	1.966059
212.515009	1100.018348	7.355712	-0.043998	1.966091
212.429055	1099.987691	7.360717	-0.043980	1.966041
212.541279	1099.990571	7.365722	-0.044004	1.966077
212.561751	1100.001505	7.370726	-0.044008	1.966092
212.546688	1100.005604	7.375731	-0.044005	1.966090
212.498195	1100.005468	7.380736	-0.043995	1.966076
212.533342	1099.994175	7.385741	-0.044002	1.966078
212.513053	1100.007679	7.390746	-0.043998	1.966082
212.572617	1099.992256	7.395750	-0.044010	1.966088
212.594766	1099.995341	7.400755	-0.044015	1.966097
212.688442	1099.997306	7.405760	-0.044035	1.966127
212.716801	1100.005425	7.410765	-0.044041	1.966141
212.551259	1099.992381	7.415770	-0.044006	1.966082
212.559257	1100.004280	7.420774	-0.044008	1.966094
212.813912	1100.000756	7.425779	-0.044061	1.966167
212.682906	1099.999333	7.430784	-0.044034	1.966127
212.674033	1099.978643	7.435789	-0.044032	1.966108
212.644192	1100.016020	7.440794	-0.044026	1.966128
212.778414	1099.998680	7.445798	-0.044054	1.966155
212.713604	1100.018195	7.450803	-0.044040	1.966151
212.720732	1099.993990	7.455808	-0.044042	1.966134
212.695975	1100.000194	7.460813	-0.044037	1.966132
212.669514	1099.993836	7.465818	-0.044031	1.966119
212.736597	1099.996159	7.470822	-0.044045	1.966141
212.718941	1099.995644	7.475827	-0.044042	1.966135
212.786286	1100.014684	7.480832	-0.044056	1.966170
212.755128	1099.998911	7.485837	-0.044049	1.966148
212.754561	1099.996266	7.490842	-0.044049	1.966146
212.773548	1100.009370	7.495846	-0.044053	1.966162
212.887048	1099.986340	7.500851	-0.044077	1.966178
212.755968	1100.012571	7.505856	-0.044050	1.966159
212.795553	1099.990773	7.510861	-0.044058	1.966154
212.577427	1100.003839	7.515866	-0.044012	1.966100
212.588381	1100.003196	7.520870	-0.044015	1.966102
212.723185	1100.007656	7.525875	-0.044043	1.966146
212.736766	1100.000003	7.530880	-0.044046	1.966144
212.796257	1099.989413	7.535885	-0.044058	1.966154
212.757919	1100.014423	7.540890	-0.044050	1.966162
212.733813	1099.993751	7.545894	-0.044045	1.966139
212.786204	1099.987877	7.550899	-0.044056	1.966150
212.837614	1100.014812	7.555904	-0.044067	1.966186
212.698092	1099.995822	7.560909	-0.044038	1.966130
212.617258	1099.993636	7.565914	-0.044021	1.966104
212.668171	1100.006545	7.570918	-0.044032	1.966129
212.813654	1099.995511	7.575923	-0.044062	1.966164
212.772274	1100.001463	7.580928	-0.044054	1.966156
212.780098	1100.001417	7.585933	-0.044055	1.966159
212.849020	1099.995830	7.590938	-0.044070	1.966175
212.685789	1100.015335	7.595942	-0.044036	1.966142
212.720396	1099.986631	7.600947	-0.044043	1.966129
212.835694	1099.998949	7.605952	-0.044067	1.966174
212.804107	1099.995552	7.610957	-0.044061	1.966161
212.787968	1100.008671	7.615962	-0.044057	1.966167
212.803892	1099.999722	7.620966	-0.044061	1.966165
212.855219	1099.991453	7.625971	-0.044071	1.966174
212.933461	1100.009931	7.630976	-0.044088	1.966211
212.856090	1099.999412	7.635981	-0.044072	1.966180
212.824168	1100.006353	7.640986	-0.044065	1.966176
212.809619	1099.981426	7.645990	-0.044062	1.966152
212.942293	1100.007323	7.650995	-0.044090	1.966212
212.809518	1100.012581	7.656000	-0.044062	1.966177
212.797424	1099.990520	7.661005	-0.044059	1.966156
212.868391	1100.003971	7.666010	-0.044074	1.966188
212.863385	1100.012433	7.671014	-0.044073	1.966193
212.831278	1099.995020	7.676019	-0.044067	1.966170
212.924363	1099.985201	7.681024	-0.044086	1.966190
212.798785	1100.003923	7.686029	-0.044060	1.966167
212.847545	1100.013452	7.691034	-0.044070	1.966189
212.858653	1099.997335	7.696038	-0.044073	1.966180
212.847069	1099.999905	7.701043	-0.044070	1.966179
212.830827	1099.999249	7.706048	-0.044067	1.966173
212.817644	1100.001028	7.711053	-0.044064	1.966171
212.910998	1100.000115	7.716058	-0.044084	1.966198
212.768270	1099.988557	7.721062	-0.044054	1.966146
212.787131	1100.011919	7.726067	-0.044058	1.966170
212.899721	1099.994242	7.731072	-0.044081	1.966190
212.911408	1100.003330	7.736077	-0.044084	1.966201
212.919570	1100.013565	7.741082	-0.044086	1.966211
212.899120	1100.001104	7.746086	-0.044081	1.966195
212.921966	1099.979099	7.751091	-0.044086	1.966185
212.846160	1100.005420	7.756096	-0.044070	1.966183
212.814623	1099.997398	7.761101	-0.044064	1.966167
212.900530	1100.001735	7.766106	-0.044082	1.966196
212.920802	1100.004137	7.771110	-0.044086	1.966204
212.847767	1099.992961	7.776115	-0.044071	1.966174
212.991794	1100.002907	7.781120	-0.044101	1.966225
212.898605	1099.997634	7.786125	-0.044082	1.966193
212.910880	1099.998088	7.791130	-0.044084	1.966197
212.958422	1099.996071	7.796134	-0.044094	1.966210
212.966287	1100.001816	7.801139	-0.044096	1.966216
212.864319	1100.012913	7.806144	-0.044074	1.966195
212.977079	1099.988164	7.811149	-0.044098	1.966209
212.849947	1100.008481	7.816154	-0.044072	1.966187
212.860101	1099.995331	7.821158	-0.044074	1.966180
212.923058	1099.996831	7.826163	-0.044087	1.966200
212.827376	1100.004924	7.831168	-0.044067	1.966178
212.875233	1100.013197	7.836173	-0.044077	1.966198
212.987837	1099.981501	7.841178	-0.044101	1.966207
212.932272	1100.006490	7.846182	-0.044089	1.966210
212.915328	1100.013510	7.851187	-0.044085	1.966211
212.984808	1099.981083	7.856192	-0.044100	1.966206
212.908645	1099.993126	7.861197	-0.044084	1.966193
212.919352	1100.008594	7.866202	-0.044086	1.966208
212.886907	1100.005525	7.871206	-0.044080	1.966196
212.903620	1099.995073	7.876211	-0.044083	1.966193
212.814377	1100.010315	7.881216	-0.044064	1.966179
212.829463	1100.005090	7.886221	-0.044068	1.966179
212.926172	1099.986877	7.891226	-0.044088	1.966194
212.991273	1100.000971	7.896230	-0.044102	1.966224
212.989562	1100.007373	7.901235	-0.044101	1.966229
212.904323	1100.005267	7.906240	-0.044084	1.966202
212.902564	1099.988664	7.911245	-0.044083	1.966188
212.824979	1100.008658	7.916250	-0.044067	1.966181
212.787742	1099.996409	7.921254	-0.044059	1.966160
212.942214	1099.993952	7.926259	-0.044092	1.966204
213.001458	1099.998473	7.931264	-0.044104	1.966225
212.993449	1099.995671	7.936269	-0.044102	1.966221
213.014129	1100.007928	7.941274	-0.044107	1.966237
213.020571	1099.998800	7.946278	-0.044108	1.966232
213.090772	1100.013548	7.951283	-0.044123	1.966264
213.060178	1099.988547	7.956288	-0.044117	1.966235
212.909062	1099.995610	7.961293	-0.044085	1.966196
213.005890	1099.999376	7.966298	-0.044105	1.966228
212.939838	1100.008353	7.971302	-0.044091	1.966215
212.977189	1099.994616	7.976307	-0.044099	1.966216
213.011853	1100.003729	7.981312	-0.044107	1.966233
212.878671	1099.997930	7.986317	-0.044079	1.966189
212.919913	1100.013737	7.991322	-0.044087	1.966214
213.030148	1099.985949	7.996326	-0.044111	1.966225
212.966860	1099.989866	8.001331	-0.044097	1.966209
212.812370	1100.009231	8.006336	-0.044065	1.966178
212.861866	1100.000461	8.011341	-0.044075	1.966186
212.935631	1099.997027	8.016346	-0.044091	1.966206
212.764247	1100.008636	8.021350	-0.044055	1.966164
212.930788	1099.992155	8.026355	-0.044090	1.966200
213.152995	1100.001845	8.031360	-0.044137	1.966274
213.045861	1100.008509	8.036365	-0.044114	1.966247
213.012135	1099.985907	8.041370	-0.044107	1.966220
213.003503	1100.005166	8.046374	-0.044105	1.966232
213.056385	1099.994901	8.051379	-0.044116	1.966240
213.067134	1100.015560	8.056384	-0.044119	1.966260
213.051674	1099.996986	8.061389	-0.044116	1.966240
212.959618	1099.996085	8.066394	-0.044096	1.966212
213.084613	1100.002297	8.071398	-0.044123	1.966255
213.046780	1099.984068	8.076403	-0.044115	1.966229
213.038529	1100.016596	8.081408	-0.044113	1.966252
213.053440	1100.000226	8.086413	-0.044116	1.966244
213.120458	1099.997370	8.091418	-0.044130	1.966262
213.028542	1099.995214	8.096422	-0.044111	1.966233
213.130120	1100.001569	8.101427	-0.044132	1.966268
213.057297	1100.011533	8.106432	-0.044117	1.966254
213.090845	1099.999050	8.111437	-0.044124	1.966254
213.116507	1099.989982	8.116442	-0.044130	1.966255
213.019086	1099.997738	8.121446	-0.044109	1.966232
213.020950	1099.999169	8.126451	-0.044109	1.966234
212.997760	1100.016186	8.131456	-0.044105	1.966240
213.064732	1099.988522	8.136461	-0.044119	1.966238
213.063857	1099.992602	8.141466	-0.044119	1.966241
213.079035	1100.012969	8.146470	-0.044122	1.966262
213.062106	1100.003366	8.151475	-0.044118	1.966249
213.048674	1099.998433	8.156480	-0.044115	1.966242
213.019327	1100.004589	8.161485	-0.044109	1.966238
212.985457	1099.987649	8.166490	-0.044102	1.966214
212.987517	1100.002019	8.171494	-0.044103	1.966226
213.060390	1099.986714	8.176499	-0.044118	1.966236
213.151169	1100.011213	8.181504	-0.044137	1.966282
213.111637	1100.000041	8.186509	-0.044129	1.966262
213.159730	1100.003420	8.191514	-0.044139	1.966279
213.085224	1100.003216	8.196518	-0.044123	1.966257
213.065252	1100.000182	8.201523	-0.044119	1.966248
213.157960	1099.996715	8.206528	-0.044139	1.966273
213.167359	1099.997868	8.211533	-0.044141	1.966277
213.168459	1099.998391	8.216538	-0.044141	1.966278
213.133137	1099.997021	8.221542	-0.044134	1.966266
213.036112	1100.003224	8.226547	-0.044113	1.966242
213.120110	1099.991074	8.231552	-0.044131	1.966258
213.042329	1100.021954	8.236557	-0.044115	1.966259
213.070257	1099.994401	8.241562	-0.044121	1.966246
213.019309	1099.992799	8.246566	-0.044110	1.966229
213.107879	1099.999922	8.251571	-0.044129	1.966261
213.194972	1100.000204	8.256576	-0.044147	1.966287
213.076626	1099.997940	8.261581	-0.044122	1.966250
213.169532	1100.004809	8.266586	-0.044142	1.966284
213.210607	1100.000660	8.271590	-0.044150	1.966293
213.023550	1100.012652	8.276595	-0.044111	1.966246
213.102739	1099.986323	8.281600	-0.044128	1.966249
213.104526	1099.995192	8.286605	-0.044128	1.966257
213.078867	1099.999338	8.291610	-0.044123	1.966252
213.146698	1099.994570	8.296614	-0.044137	1.966269
213.132997	1100.004555	8.301619	-0.044134	1.966273
213.128760	1100.009120	8.306624	-0.044133	1.966275
213.172467	1099.992553	8.311629	-0.044143	1.966275
213.268296	1099.998905	8.316634	-0.044163	1.966309
213.141483	1099.999677	8.321638	-0.044136	1.966272
213.230153	1100.000358	8.326643	-0.044155	1.966299
213.190824	1099.993912	8.331648	-0.044147	1.966282
213.095727	1099.996775	8.336653	-0.044127	1.966256
213.109319	1100.002532	8.341658	-0.044129	1.966265
213.079210	1100.004175	8.346662	-0.044123	1.966257
213.040981	1100.012325	8.351667	-0.044115	1.966252
213.143120	1099.989836	8.356672	-0.044137	1.966265
213.146877	1100.000155	8.361677	-0.044137	1.966274
213.086426	1099.994978	8.366682	-0.044125	1.966252
213.159045	1100.001593	8.371686	-0.044140	1.966279
213.243792	1100.006976	8.376691	-0.044158	1.966308
213.204634	1099.991656	8.381696	-0.044150	1.966285
213.193204	1100.002775	8.386701	-0.044147	1.966290
213.251043	1099.998224	8.391706	-0.044160	1.966304
213.292751	1099.986425	8.396710	-0.044168	1.966307
213.262373	1100.027814	8.401715	-0.044162	1.966330
213.285169	1099.984402	8.406720	-0.044167	1.966303
213.224492	1099.998132	8.411725	-0.044154	1.966296
213.179975	1100.011089	8.416730	-0.044145	1.966293
213.224700	1099.996134	8.421734	-0.044154	1.966295
213.190806	1100.004830	8.426739	-0.044147	1.966291
213.277134	1099.980777	8.431744	-0.044165	1.966298
213.247394	1100.009508	8.436749	-0.044159	1.966312
213.181391	1099.991637	8.441754	-0.044145	1.966278
213.180405	1100.015582	8.446758	-0.044145	1.966297
213.276130	1099.983532	8.451763	-0.044165	1.966300
213.336435	1099.994256	8.456768	-0.044178	1.966327
213.250275	1100.010119	8.461773	-0.044160	1.966314
213.262630	1099.999732	8.466778	-0.044162	1.966309
213.252460	1100.001760	8.471782	-0.044160	1.966308
213.323441	1100.001194	8.476787	-0.044175	1.966329
213.257016	1099.987488	8.481792	-0.044161	1.966298
213.295685	1100.002079	8.486797	-0.044170	1.966321
213.310051	1099.998130	8.491802	-0.044173	1.966322
213.262250	1100.002131	8.496806	-0.044163	1.966311
213.313200	1100.000815	8.501811	-0.044173	1.966325
213.214210	1100.001161	8.506816	-0.044153	1.966296
213.276737	1099.990612	8.511821	-0.044166	1.966307
213.306826	1100.007082	8.516826	-0.044172	1.966329
213.350934	1099.982953	8.521830	-0.044181	1.966323
213.300878	1100.018050	8.526835	-0.044171	1.966335
213.246092	1100.005300	8.531840	-0.044159	1.966309
213.292738	1099.994216	8.536845	-0.044169	1.966314
213.267209	1100.008123	8.541850	-0.044164	1.966318
213.219605	1099.999635	8.546854	-0.044154	1.966297
213.346484	1099.975096	8.551859	-0.044181	1.966316
213.306421	1100.010177	8.556864	-0.044172	1.966331
213.219468	1100.006321	8.561869	-0.044154	1.966302
213.118801	1099.990691	8.566874	-0.044133	1.966260
213.157347	1100.013136	8.571878	-0.044141	1.966289
213.192149	1099.998171	8.576883	-0.044148	1.966288
213.240086	1099.994803	8.581888	-0.044158	1.966300
213.284660	1099.993721	8.586893	-0.044168	1.966312
213.283393	1099.995549	8.591898	-0.044168	1.966313
213.260798	1100.020547	8.596902	-0.044163	1.966326
213.279338	1099.990776	8.601907	-0.044167	1.966308
213.224440	1099.998092	8.606912	-0.044155	1.966298
213.349776	1099.986356	8.611917	-0.044182	1.966326
213.406934	1099.990875	8.616922	-0.044194	1.966347
213.355405	1100.014522	8.621926	-0.044183	1.966350
213.330648	1099.996699	8.626931	-0.044178	1.966329
213.358246	1099.998703	8.631936	-0.044184	1.966338
213.346483	1099.994733	8.636941	-0.044181	1.966332
213.316289	1100.013427	8.641946	-0.044175	1.966337
213.267807	1100.001670	8.646950	-0.044165	1.966314
213.329371	1100.005106	8.651955	-0.044178	1.966335
213.319126	1099.988942	8.656960	-0.044176	1.966319
213.319869	1099.999012	8.661965	-0.044176	1.966327
213.379377	1099.993823	8.666970	-0.044188	1.966341
213.361879	1099.998252	8.671974	-0.044185	1.966339
213.415943	1099.987736	8.676979	-0.044196	1.966347
213.371114	1100.012025	8.681984	-0.044187	1.966353
213.344424	1100.003550	8.686989	-0.044181	1.966339
213.428454	1099.981778	8.691994	-0.044199	1.966347
213.391061	1100.013235	8.696998	-0.044191	1.966360
213.410911	1099.996178	8.702003	-0.044195	1.966353
213.379758	1099.998419	8.707008	-0.044189	1.966345
213.482859	1099.988778	8.712013	-0.044210	1.966368
213.441056	1100.000497	8.717018	-0.044202	1.966365
213.426251	1099.999892	8.722022	-0.044199	1.966360
213.333618	1100.020832	8.727027	-0.044179	1.966349
213.417458	1099.979911	8.732032	-0.044197	1.966342
213.386323	1100.013181	8.737037	-0.044190	1.966359
213.347487	1100.000940	8.742042	-0.044182	1.966338
213.293236	1100.010210	8.747046	-0.044171	1.966329
213.391222	1099.989710	8.752051	-0.044191	1.966342
213.351432	1100.005665	8.757056	-0.044183	1.966343
213.340514	1099.990159	8.762061	-0.044181	1.966328
213.302864	1099.998889	8.767066	-0.044173	1.966323
213.372888	1100.004896	8.772070	-0.044188	1.966349
213.409086	1099.984392	8.777075	-0.044195	1.966344
213.318872	1100.021026	8.782080	-0.044176	1.966345
213.391256	1099.983284	8.787085	-0.044192	1.966338
213.360571	1100.006770	8.792090	-0.044185	1.966347
213.238527	1100.015329	8.797094	-0.044160	1.966317
213.311456	1099.988991	8.802099	-0.044175	1.966318
213.316103	1100.014587	8.807104	-0.044176	1.966340
213.326033	1099.993713	8.812109	-0.044178	1.966326
213.345874	1099.986070	8.817114	-0.044182	1.966326
213.236493	1100.015616	8.822118	-0.044159	1.966317
213.250074	1100.008364	8.827123	-0.044162	1.966315
213.262366	1099.990792	8.832128	-0.044165	1.966305
213.263404	1100.007356	8.837133	-0.044165	1.966319
213.348054	1099.991754	8.842138	-0.044183	1.966332
213.308892	1100.005667	8.847142	-0.044175	1.966331
213.235158	1099.998159	8.852147	-0.044159	1.966303
213.371966	1099.992850	8.857152	-0.044188	1.966340
213.302230	1099.999230	8.862157	-0.044173	1.966324
213.336786	1099.998775	8.867162	-0.044181	1.966334
213.392866	1099.990091	8.872166	-0.044192	1.966344
213.386655	1099.999416	8.877171	-0.044191	1.966350
213.235806	1100.018186	8.882176	-0.044160	1.966319
213.386251	1099.983036	8.887181	-0.044191	1.966337
213.298517	1100.019923	8.892186	-0.044173	1.966339
213.328618	1099.975521	8.897190	-0.044179	1.966314
213.356086	1100.017620	8.902195	-0.044185	1.966355
213.363281	1099.995991	8.907200	-0.044186	1.966340
213.387314	1099.992751	8.912205	-0.044192	1.966345
213.332917	1100.009285	8.917210	-0.044180	1.966342
213.389334	1099.987458	8.922214	-0.044192	1.966341
213.446748	1099.990478	8.927219	-0.044204	1.966361
213.387804	1100.010552	8.932224	-0.044192	1.966359
213.310743	1100.015128	8.937229	-0.044176	1.966340
213.321920	1099.999184	8.942234	-0.044178	1.966331
213.385875	1099.998902	8.947238	-0.044191	1.966350
213.397887	1099.983640	8.952243	-0.044194	1.966341
213.363471	1100.005349	8.957248	-0.044187	1.966348
213.401009	1099.990339	8.962253	-0.044195	1.966348
213.270443	1100.013168	8.967258	-0.044167	1.966326
213.335319	1099.994914	8.972262	-0.044181	1.966332
213.366206	1100.001068	8.977267	-0.044188	1.966346
213.307515	1099.998821	8.982272	-0.044175	1.966326
213.313227	1100.000383	8.987277	-0.044176	1.966329
213.371247	1099.999968	8.992282	-0.044189	1.966346
213.390529	1099.995542	8.997286	-0.044193	1.966349
213.461100	1099.985923	9.002291	-0.044208	1.966362
213.386758	1100.008480	9.007296	-0.044192	1.966358
213.342811	1100.007804	9.012301	-0.044183	1.966344
213.391638	1099.994886	9.017306	-0.044193	1.966349
213.245495	1100.014059	9.022310	-0.044162	1.966320
213.437313	1099.967496	9.027315	-0.044203	1.966341
213.350427	1100.015272	9.032320	-0.044185	1.966353
213.388712	1099.995572	9.037325	-0.044193	1.966349
213.411633	1099.991757	9.042330	-0.044198	1.966353
213.355865	1100.011017	9.047334	-0.044186	1.966351
213.318369	1100.003870	9.052339	-0.044178	1.966334

213.386144	1099.665972	9.057344	-0.044192	1.966091
213.358849	1098.580702	9.062349	-0.044186	1.965237
213.268098	1097.494171	9.067354	-0.044167	1.964362
213.335715	1096.391769	9.072358	-0.044181	1.963522
213.228796	1095.288823	9.077363	-0.044158	1.962628
213.231651	1094.193960	9.082368	-0.044159	1.961774
213.370799	1093.086580	9.087373	-0.044188	1.960950
213.337600	1091.992467	9.092378	-0.044181	1.960085
213.366520	1090.867303	9.097382	-0.044187	1.959213
213.351715	1089.788673	9.102387	-0.044183	1.958364
213.358931	1088.691125	9.107392	-0.044185	1.957507
213.251686	1087.565529	9.112397	-0.044162	1.956593
213.229307	1086.478506	9.117402	-0.044157	1.955735
213.262856	1085.386687	9.122406	-0.044164	1.954889
213.319726	1084.272879	9.127411	-0.044176	1.954033
213.268840	1083.175926	9.132416	-0.044165	1.953156
213.167473	1082.085478	9.137421	-0.044143	1.952270
213.154001	1080.970647	9.142426	-0.044140	1.951390
213.271322	1079.873785	9.147430	-0.044165	1.950564
213.178186	1078.783679	9.152435	-0.044145	1.949679
213.239706	1077.657104	9.157440	-0.044158	1.948811
213.354541	1076.564754	9.162445	-0.044182	1.947987
213.240937	1075.494684	9.167450	-0.044158	1.947110
213.173454	1074.369411	9.172454	-0.044143	1.946204
213.316661	1073.260263	9.177459	-0.044173	1.945373
213.122588	1072.183312	9.182464	-0.044132	1.944466
213.115570	1071.059608	9.187469	-0.044130	1.943577
213.148214	1069.967912	9.192474	-0.044137	1.942726
213.098553	1068.874996	9.197478	-0.044126	1.941848
213.103229	1067.766117	9.202483	-0.044127	1.940974
213.019825	1066.656910	9.207488	-0.044109	1.940073
213.010591	1065.547069	9.212493	-0.044107	1.939193
213.105155	1064.463292	9.217498	-0.044127	1.938365
212.964716	1063.355189	9.222502	-0.044097	1.937445
213.055457	1062.293143	9.227507	-0.044116	1.936632
213.073665	1061.143617	9.232512	-0.044120	1.935728
213.020269	1060.052802	9.237517	-0.044108	1.934848
213.046183	1058.967937	9.242522	-0.044114	1.933996
212.953463	1057.855205	9.247526	-0.044094	1.933085
213.063621	1056.756339	9.252531	-0.044117	1.932247
212.969442	1055.641669	9.257536	-0.044097	1.931334
212.981296	1054.566897	9.262541	-0.044099	1.930484
213.035424	1053.435715	9.267546	-0.044111	1.929603
212.968864	1052.364082	9.272550	-0.044096	1.928731
212.905449	1051.251500	9.277555	-0.044083	1.927827
212.858391	1050.151428	9.282560	-0.044073	1.926938
212.775398	1049.049184	9.287565	-0.044055	1.926035
212.983147	1047.946322	9.292570	-0.044099	1.925221
212.946987	1046.844956	9.297574	-0.044091	1.924332
212.922612	1045.736647	9.302579	-0.044085	1.923442
212.877878	1044.655266	9.307584	-0.044076	1.922566
212.904444	1043.542726	9.312589	-0.044081	1.921687
212.885826	1042.450764	9.317594	-0.044077	1.920810
212.846818	1041.321970	9.322598	-0.044069	1.919897
212.899657	1040.253442	9.327603	-0.044080	1.919060
212.889844	1039.118394	9.332608	-0.044077	1.918150
212.916721	1038.045553	9.337613	-0.044083	1.917301
212.861927	1036.961597	9.342618	-0.044071	1.916417
212.770301	1035.818955	9.347622	-0.044052	1.915475
212.786488	1034.747996	9.352627	-0.044055	1.914622
212.977452	1033.618987	9.357632	-0.044095	1.913777
212.870769	1032.535563	9.362637	-0.044072	1.912876
212.728945	1031.445141	9.367642	-0.044042	1.911958
212.769531	1030.315589	9.372646	-0.044051	1.911065
212.783951	1029.225391	9.377651	-0.044054	1.910195
212.679404	1028.138797	9.382656	-0.044031	1.909290
212.721410	1027.028130	9.387661	-0.044040	1.908411
212.881000	1025.927966	9.392666	-0.044073	1.907576
212.756307	1024.840177	9.397670	-0.044047	1.906664
212.783436	1023.720814	9.402675	-0.044052	1.905772
212.663082	1022.629920	9.407680	-0.044027	1.904857
212.786804	1021.506294	9.412685	-0.044053	1.903991
212.759960	1020.434412	9.417690	-0.044047	1.903119
212.735495	1019.322793	9.422694	-0.044042	1.902216
212.653725	1018.226953	9.427699	-0.044024	1.901307
212.656483	1017.111169	9.432704	-0.044025	1.900408
212.847650	1016.012861	9.437709	-0.044065	1.899581
212.696817	1014.911685	9.442714	-0.044033	1.898646
212.669253	1013.816845	9.447718	-0.044027	1.897753
212.775477	1012.735223	9.452723	-0.044049	1.896912
212.871535	1011.615683	9.457728	-0.044069	1.896037
212.815816	1010.505011	9.462733	-0.044057	1.895122
212.794902	1009.414489	9.467738	-0.044052	1.894233
212.765679	1008.307627	9.472742	-0.044046	1.893328
212.820055	1007.208658	9.477747	-0.044057	1.892455
212.755023	1006.114307	9.482752	-0.044043	1.891548
212.699647	1005.008505	9.487757	-0.044032	1.890634
212.686228	1003.910781	9.492762	-0.044029	1.889740
212.705915	1002.816039	9.497766	-0.044033	1.888857
212.717904	1001.697275	9.502771	-0.044035	1.887953
212.609905	1000.608101	9.507776	-0.044012	1.887035
212.697143	999.500067	9.512781	-0.044030	1.886162
212.749750	998.407770	9.517786	-0.044041	1.885290
212.573044	997.304425	9.522790	-0.044004	1.884337
212.604939	996.196587	9.527795	-0.044010	1.883446
212.640499	995.110858	9.532800	-0.044018	1.882573
212.722415	993.990540	9.537805	-0.044035	1.881686
212.617808	992.894452	9.542810	-0.044012	1.880760
212.643262	991.781407	9.547814	-0.044018	1.879861
212.621033	990.707715	9.552819	-0.044013	1.878978
212.556231	989.591257	9.557824	-0.043999	1.878047
212.575043	988.514472	9.562829	-0.044003	1.877173
212.492410	987.399676	9.567834	-0.043985	1.876237
212.477098	986.293907	9.572838	-0.043982	1.875328
212.528215	985.183328	9.577843	-0.043992	1.874436
212.405519	984.091936	9.582848	-0.043966	1.873505
212.417243	982.984241	9.587853	-0.043968	1.872602
212.427466	981.893665	9.592858	-0.043970	1.871712
212.510823	980.770291	9.597862	-0.043988	1.870818
212.486779	979.703848	9.602867	-0.043983	1.869937
212.443386	978.577235	9.607872	-0.043973	1.868999
212.605496	977.484826	9.612877	-0.044007	1.868154
212.564864	976.381435	9.617882	-0.043998	1.867236
212.391300	975.290479	9.622886	-0.043962	1.866285
212.366320	974.184083	9.627891	-0.043956	1.865368
212.467647	973.083101	9.632896	-0.043977	1.864495
212.385759	971.965362	9.637901	-0.043960	1.863550
212.426876	970.887097	9.642906	-0.043968	1.862676
212.507646	969.777741	9.647910	-0.043985	1.861788
212.486936	968.666895	9.652915	-0.043981	1.860867
212.423498	967.579325	9.657920	-0.043967	1.859950
212.500929	966.469989	9.662925	-0.043983	1.859060
212.554414	965.356964	9.667930	-0.043994	1.858159
212.475967	964.277180	9.672934	-0.043978	1.857243
212.467725	963.197529	9.677939	-0.043976	1.856349
212.326860	962.072813	9.682944	-0.043946	1.855375
212.457242	960.967987	9.687949	-0.043973	1.854504
212.480504	959.843056	9.692954	-0.043978	1.853581
212.477900	958.783174	9.697958	-0.043977	1.852704
212.366250	957.682517	9.702963	-0.043953	1.851757
212.358204	956.566794	9.707968	-0.043952	1.850831
212.408197	955.443180	9.712973	-0.043962	1.849916
212.454773	954.378475	9.717978	-0.043972	1.849048
212.348397	953.265255	9.722982	-0.043949	1.848091
212.271676	952.151165	9.727987	-0.043933	1.847142
212.320562	951.070971	9.732992	-0.043943	1.846261
212.305213	949.955191	9.737997	-0.043939	1.845329
212.275402	948.857765	9.743002	-0.043933	1.844408
212.208985	947.756817	9.748006	-0.043919	1.843471
212.225876	946.651867	9.753011	-0.043922	1.842558
212.122611	945.583530	9.758016	-0.043900	1.841635
212.161970	944.452072	9.763021	-0.043908	1.840706
212.288663	943.325299	9.768026	-0.043935	1.839808
212.211922	942.256433	9.773030	-0.043918	1.838893
212.269025	941.166381	9.778035	-0.043930	1.838002
212.268387	940.038159	9.783040	-0.043930	1.837061
212.073789	938.976258	9.788045	-0.043889	1.836111
212.119738	937.839246	9.793050	-0.043898	1.835177
212.118334	936.761246	9.798054	-0.043898	1.834276
212.168776	935.629587	9.803059	-0.043908	1.833346
212.116572	934.552321	9.808064	-0.043897	1.832428
212.109049	933.448276	9.813069	-0.043895	1.831502
212.104115	932.326643	9.818074	-0.043894	1.830561
212.150747	931.251613	9.823078	-0.043904	1.829676
212.168337	930.143066	9.828083	-0.043907	1.828752
212.139320	929.039869	9.833088	-0.043901	1.827818
212.142692	927.962117	9.838093	-0.043901	1.826915
212.056663	926.834293	9.843098	-0.043883	1.825940
212.016008	925.730439	9.848102	-0.043874	1.825000
211.872864	924.637989	9.853107	-0.043844	1.824036
211.941556	923.551144	9.858112	-0.043858	1.823144
211.916517	922.409206	9.863117	-0.043853	1.822176
211.919392	921.342207	9.868122	-0.043853	1.821279
212.051259	920.235499	9.873126	-0.043881	1.820390
212.031958	919.130689	9.878131	-0.043877	1.819453
211.960199	918.040256	9.883136	-0.043861	1.818511
211.918238	916.919821	9.888141	-0.043852	1.817552
211.919496	915.845794	9.893146	-0.043852	1.816647
211.991091	914.729013	9.898150	-0.043867	1.815727
211.964022	913.626181	9.903155	-0.043861	1.814787
211.998763	912.523843	9.908160	-0.043868	1.813867
211.937209	911.428847	9.913165	-0.043855	1.812921
211.832506	910.336187	9.918170	-0.043833	1.811963
211.761465	909.221889	9.923174	-0.043818	1.810997
211.865974	908.115290	9.928179	-0.043840	1.810094
211.750943	907.033747	9.933184	-0.043815	1.809140
211.873745	905.902378	9.938189	-0.043841	1.808221
211.812877	904.818711	9.943194	-0.043828	1.807282
211.865177	903.731918	9.948198	-0.043839	1.806377
211.895065	902.612786	9.953203	-0.043845	1.805437
211.799938	901.520019	9.958208	-0.043825	1.804478
211.706345	900.423041	9.963213	-0.043805	1.803515
211.743414	899.309677	9.968218	-0.043812	1.802580
211.760051	898.228088	9.973222	-0.043816	1.801666
211.765300	897.102866	9.978227	-0.043817	1.800710
211.781454	896.016348	9.983232	-0.043820	1.799790
211.723627	894.903899	9.988237	-0.043808	1.798823
211.690567	893.810113	9.993242	-0.043800	1.797880
211.718990	892.720360	9.998246	-0.043806	1.796960
211.674837	891.613183	10.003251	-0.043797	1.796000
211.725494	890.498947	10.008256	-0.043807	1.795066
211.655764	889.395376	10.013261	-0.043792	1.794100
211.736181	888.315864	10.018266	-0.043809	1.793204
211.674199	887.208826	10.023270	-0.043796	1.792237
211.701366	886.098137	10.028275	-0.043801	1.791295
211.647163	885.002782	10.033280	-0.043790	1.790340
211.722385	883.899596	10.038285	-0.043805	1.789420
211.565215	882.806528	10.043290	-0.043772	1.788431
211.611728	881.686492	10.048294	-0.043782	1.787486
211.623910	880.608356	10.053299	-0.043784	1.786565
211.558436	879.491784	10.058304	-0.043770	1.785585
211.512687	878.404537	10.063309	-0.043760	1.784636
211.518900	877.289020	10.068314	-0.043762	1.783680
211.423367	876.207554	10.073318	-0.043741	1.782718
211.483504	875.096457	10.078323	-0.043754	1.781783
211.469098	873.988539	10.083328	-0.043750	1.780824
211.470503	872.881977	10.088333	-0.043751	1.779872
211.481949	871.798195	10.093338	-0.043753	1.778942
211.496603	870.680422	10.098342	-0.043756	1.777983
211.500358	869.589730	10.103347	-0.043756	1.777044
211.508956	868.501171	10.108352	-0.043758	1.776108
211.568795	867.386620	10.113357	-0.043770	1.775165
211.578543	866.283767	10.118362	-0.043772	1.774216
211.568835	865.184354	10.123366	-0.043770	1.773262
211.438977	864.090826	10.128371	-0.043742	1.772273
211.381125	862.981007	10.133376	-0.043730	1.771294
211.403893	861.887760	10.138381	-0.043735	1.770355
211.375928	860.776220	10.143386	-0.043729	1.769383
211.373615	859.678211	10.148390	-0.043728	1.768430
211.475199	858.574663	10.153395	-0.043749	1.767508
211.446671	857.493567	10.158400	-0.043743	1.766560
211.425849	856.355417	10.163405	-0.043738	1.765565
211.383249	855.297697	10.168410	-0.043729	1.764632
211.334746	854.180884	10.173414	-0.043719	1.763645
211.417378	853.063512	10.178419	-0.043736	1.762701
211.378788	851.982662	10.183424	-0.043728	1.761748
211.373517	850.874050	10.188429	-0.043726	1.760781
211.287132	849.779449	10.193434	-0.043708	1.759799
211.379529	848.657780	10.198438	-0.043727	1.758853
211.374223	847.562284	10.203443	-0.043726	1.757896
211.305095	846.485019	10.208448	-0.043711	1.756933
211.248491	845.378468	10.213453	-0.043699	1.755948
211.198598	844.284777	10.218458	-0.043689	1.754976
211.148556	843.153544	10.223462	-0.043678	1.753970
211.214568	842.056778	10.228467	-0.043691	1.753034
211.209206	840.971186	10.233472	-0.043690	1.752082
211.216842	839.846901	10.238477	-0.043692	1.751101
211.223230	838.765782	10.243482	-0.043693	1.750157
211.166869	837.672230	10.248486	-0.043681	1.749179
211.231327	836.552463	10.253491	-0.043694	1.748219
211.196177	835.462045	10.258496	-0.043686	1.747251
211.138117	834.374567	10.263501	-0.043674	1.746277
211.155123	833.246269	10.268506	-0.043677	1.745292
211.221970	832.149491	10.273510	-0.043691	1.744351
211.209940	831.054485	10.278515	-0.043689	1.743384
211.247564	829.967395	10.283520	-0.043696	1.742441
211.179185	828.858268	10.288525	-0.043682	1.741441
211.080489	827.739079	10.293530	-0.043661	1.740422
211.137749	826.654501	10.298534	-0.043673	1.739486
211.200152	825.549196	10.303539	-0.043686	1.738533
211.037271	824.463457	10.308544	-0.043651	1.737520
211.167706	823.351656	10.313549	-0.043678	1.736583
211.086408	822.247145	10.318554	-0.043661	1.735580
211.091071	821.152419	10.323558	-0.043662	1.734614
211.150118	820.041027	10.328563	-0.043674	1.733652
211.109091	818.937591	10.333568	-0.043665	1.732662
211.047038	817.856026	10.338573	-0.043652	1.731683
211.076677	816.730952	10.343578	-0.043658	1.730697
211.040504	815.643393	10.348582	-0.043650	1.729721
210.961208	814.555461	10.353587	-0.043634	1.728729
211.034589	813.437780	10.358592	-0.043649	1.727763
211.036286	812.341045	10.363597	-0.043649	1.726790
210.931684	811.239738	10.368602	-0.043627	1.725776
210.965451	810.138456	10.373606	-0.043634	1.724809
210.937567	809.038263	10.378611	-0.043628	1.723821
210.997236	807.931110	10.383616	-0.043640	1.722857
211.047548	806.839248	10.388621	-0.043650	1.721903
210.956902	805.739083	10.393626	-0.043631	1.720892
210.952349	804.631983	10.398630	-0.043630	1.719904
210.984501	803.545704	10.403635	-0.043637	1.718946
210.988521	802.419725	10.408640	-0.043637	1.717943
210.889012	801.326685	10.413645	-0.043616	1.716933
210.871874	800.238921	10.418650	-0.043612	1.715955
210.929677	799.119096	10.423654	-0.043624	1.714975
210.910135	798.048874	10.428659	-0.043620	1.714011
210.785604	796.936443	10.433664	-0.043594	1.712972
210.776597	795.807949	10.438669	-0.043591	1.711959
210.834322	794.721543	10.443674	-0.043603	1.711006
210.793461	793.614944	10.448678	-0.043595	1.710000
210.698829	792.537967	10.453683	-0.043575	1.709001
210.819733	791.402514	10.458688	-0.043600	1.708024
210.762863	790.332272	10.463693	-0.043588	1.707044
210.586875	789.230749	10.468698	-0.043550	1.705992
210.677590	788.122515	10.473702	-0.043569	1.705028
210.637421	787.018539	10.478707	-0.043561	1.704021
210.649808	785.920921	10.483712	-0.043563	1.703038
210.708190	784.802014	10.488717	-0.043575	1.702051
210.662761	783.719540	10.493722	-0.043565	1.701059
210.693856	782.599562	10.498726	-0.043572	1.700061
210.650243	781.534104	10.503731	-0.043562	1.699084
210.679879	780.411658	10.508736	-0.043569	1.698081
210.704532	779.312026	10.513741	-0.043574	1.697097
210.573183	778.225691	10.518746	-0.043546	1.696069
210.526239	777.103504	10.523750	-0.043536	1.695038
210.695014	775.999801	10.528755	-0.043571	1.694099
210.552453	774.928480	10.533760	-0.043541	1.693079
210.542822	773.797369	10.538765	-0.043539	1.692051
210.506699	772.705522	10.543770	-0.043531	1.691049
210.494844	771.597291	10.548774	-0.043528	1.690040
210.502853	770.519292	10.553779	-0.043530	1.689064
210.604023	769.387853	10.558784	-0.043551	1.688073
210.596625	768.298048	10.563789	-0.043549	1.687080
210.585990	767.223884	10.568794	-0.043547	1.686100
210.493661	766.089243	10.573798	-0.043527	1.685035
210.515672	764.988214	10.578803	-0.043531	1.684041
210.563788	763.913452	10.583808	-0.043541	1.683079
210.442709	762.803445	10.588813	-0.043516	1.682025
210.385641	761.697760	10.593818	-0.043503	1.680997
210.289656	760.604884	10.598822	-0.043483	1.679965
210.268894	759.500257	10.603827	-0.043478	1.678950
210.445560	758.362940	10.608832	-0.043515	1.677974
210.385903	757.297699	10.613837	-0.043503	1.676979
210.346229	756.210456	10.618842	-0.043494	1.675971
210.363492	755.079469	10.623846	-0.043498	1.674942
210.364120	754.010209	10.628851	-0.043498	1.673963
210.515566	752.867326	10.633856	-0.043529	1.672970
210.363083	751.795300	10.638861	-0.043497	1.671933
210.484229	750.673728	10.643866	-0.043522	1.670948
210.377260	749.600088	10.648870	-0.043500	1.669924
210.302155	748.492766	10.653875	-0.043484	1.668880
210.262361	747.384756	10.658880	-0.043475	1.667848
210.256212	746.273799	10.663885	-0.043474	1.666824
210.330550	745.198385	10.668890	-0.043489	1.665861
210.276753	744.090426	10.673894	-0.043478	1.664822
210.382090	742.966201	10.678899	-0.043499	1.663825
210.238337	741.880568	10.683904	-0.043469	1.662772
210.244874	740.789699	10.688909	-0.043470	1.661768
210.316892	739.667460	10.693914	-0.043485	1.660759
210.091550	738.582725	10.698918	-0.043438	1.659676
210.240321	737.473566	10.703923	-0.043469	1.658705
210.240509	736.378897	10.708928	-0.043469	1.657693
210.241830	735.263537	10.713933	-0.043469	1.656661
210.223808	734.179192	10.718938	-0.043465	1.655651
210.180820	733.089780	10.723942	-0.043455	1.654626
210.198257	731.971527	10.728947	-0.043459	1.653596
210.210052	730.861557	10.733952	-0.043461	1.652571
210.167607	729.762224	10.738957	-0.043452	1.651536
210.175489	728.671295	10.743962	-0.043454	1.650525
210.079245	727.582641	10.748966	-0.043433	1.649479
210.123164	726.459331	10.753971	-0.043442	1.648451
210.117529	725.368848	10.758976	-0.043441	1.647434
210.063102	724.288746	10.763981	-0.043429	1.646409
210.001999	723.158840	10.768986	-0.043416	1.645334
210.054436	722.050879	10.773990	-0.043427	1.644320
210.098223	720.969057	10.778995	-0.043436	1.643328
210.132511	719.855141	10.784000	-0.043443	1.642301
209.947525	718.779458	10.789005	-0.043404	1.641228
210.016157	717.633632	10.794010	-0.043418	1.640183
210.047476	716.570549	10.799014	-0.043425	1.639200
210.019500	715.469598	10.804019	-0.043419	1.638160
210.063762	714.352069	10.809024	-0.043428	1.637130
210.038278	713.263708	10.814029	-0.043422	1.636101
210.010586	712.156760	10.819034	-0.043416	1.635054
209.971651	711.048445	10.824038	-0.043408	1.634000
209.917986	709.946958	10.829043	-0.043396	1.632946
209.976645	708.854040	10.834048	-0.043408	1.631941
209.832902	707.757875	10.839053	-0.043378	1.630858
209.945955	706.638543	10.844058	-0.043402	1.629847
209.931318	705.554144	10.849062	-0.043398	1.628822
209.974644	704.444407	10.854067	-0.043407	1.627793
209.920960	703.340080	10.859072	-0.043396	1.626733
209.910626	702.265351	10.864077	-0.043393	1.625716
209.930104	701.146364	10.869082	-0.043397	1.624667
209.904292	700.036752	10.874086	-0.043392	1.623610
209.890552	698.960143	10.879091	-0.043389	1.622588
209.880776	697.834784	10.884096	-0.043386	1.621521
209.920213	696.744004	10.889101	-0.043394	1.620504
209.883781	695.636811	10.894106	-0.043387	1.619443
209.812697	694.542952	10.899110	-0.043371	1.618381
209.776868	693.435022	10.904115	-0.043364	1.617317
209.815947	692.354245	10.909120	-0.043372	1.616307
209.816814	691.228925	10.914125	-0.043372	1.615240
209.780078	690.148348	10.919130	-0.043364	1.614200
209.772941	689.026978	10.924134	-0.043362	1.613132
209.777506	687.938200	10.929139	-0.043363	1.612099
209.849862	686.826153	10.934144	-0.043378	1.611068
209.764348	685.742626	10.939149	-0.043360	1.610004
209.704758	684.630504	10.944154	-0.043347	1.608923
209.767256	683.523310	10.949158	-0.043360	1.607891
209.851509	682.433468	10.954163	-0.043378	1.606883
209.681157	681.352787	10.959168	-0.043342	1.605788
209.714693	680.225896	10.964173	-0.043348	1.604724
209.807757	679.110016	10.969178	-0.043368	1.603692
209.658172	678.037839	10.974182	-0.043336	1.602611
209.575347	676.929305	10.979187	-0.043319	1.601519
209.690732	675.819853	10.984192	-0.043343	1.600500
209.708593	674.743980	10.989197	-0.043346	1.599476
209.490656	673.624653	10.994202	-0.043300	1.598321
209.588380	672.509780	10.999206	-0.043321	1.597288
209.567153	671.430434	11.004211	-0.043316	1.596243
209.668395	670.321582	11.009216	-0.043337	1.595216
209.669621	669.207887	11.014221	-0.043337	1.594146
209.568085	668.125723	11.019226	-0.043316	1.593067
209.492319	667.030476	11.024230	-0.043299	1.591984
209.500386	665.915384	11.029235	-0.043301	1.590912
209.459449	664.815593	11.034240	-0.043292	1.589837
209.458803	663.719820	11.039245	-0.043292	1.588779
209.516211	662.602134	11.044250	-0.043304	1.587722
209.547887	661.504651	11.049254	-0.043310	1.586674
209.579650	660.413177	11.054259	-0.043317	1.585631
209.554261	659.321956	11.059264	-0.043311	1.584566
209.562865	658.203126	11.064269	-0.043313	1.583487
209.531553	657.124264	11.069274	-0.043306	1.582430
209.537312	655.997752	11.074278	-0.043307	1.581340
209.453024	654.917540	11.079283	-0.043289	1.580261
209.498159	653.806841	11.084288	-0.043298	1.579200
209.374769	652.713947	11.089293	-0.043272	1.578091
209.384155	651.602103	11.094298	-0.043274	1.577014
209.261493	650.524151	11.099302	-0.043248	1.575919
209.336412	649.398814	11.104307	-0.043264	1.574853
209.452927	648.296477	11.109312	-0.043288	1.573824
209.414683	647.192264	11.114317	-0.043280	1.572733
209.397994	646.096034	11.119322	-0.043276	1.571658
209.386657	645.003411	11.124326	-0.043273	1.570587
209.454014	643.906797	11.129331	-0.043287	1.569542
209.389144	642.788798	11.134336	-0.043274	1.568425
209.329305	641.719267	11.139341	-0.043261	1.567356
209.280544	640.605622	11.144346	-0.043250	1.566248
209.213578	639.497870	11.149350	-0.043236	1.565137
209.315251	638.373949	11.154355	-0.043257	1.564075
209.331675	637.297346	11.159360	-0.043261	1.563026
209.256657	636.195259	11.164365	-0.043245	1.561915
209.352657	635.088665	11.169370	-0.043265	1.560866
209.197079	634.003808	11.174374	-0.043232	1.559740
209.229072	632.889293	11.179379	-0.043238	1.558656
209.261271	631.778157	11.184384	-0.043245	1.557576
209.220012	630.700497	11.189389	-0.043236	1.556499
209.254885	629.581118	11.194394	-0.043243	1.555409
209.159230	628.506139	11.199398	-0.043223	1.554312
209.038236	627.381201	11.204403	-0.043197	1.553155
209.052302	626.296411	11.209408	-0.043200	1.552089
209.095896	625.173891	11.214413	-0.043209	1.550997
209.082313	624.077657	11.219418	-0.043206	1.549908
209.086043	622.988469	11.224422	-0.043206	1.548831
209.028490	621.880520	11.229427	-0.043194	1.547712
209.087695	620.774335	11.234432	-0.043206	1.546639
209.167084	619.678729	11.239437	-0.043223	1.545584
209.047181	618.575856	11.244442	-0.043197	1.544442
209.024202	617.486570	11.249446	-0.043192	1.543352
209.051853	616.379215	11.254451	-0.043198	1.542262
208.959426	615.299855	11.259456	-0.043178	1.541152
208.876403	614.156292	11.264461	-0.043161	1.539982
209.035523	613.063460	11.269466	-0.043194	1.538956
208.875104	611.997634	11.274470	-0.043160	1.537831
208.983748	610.856967	11.279475	-0.043183	1.536736
208.969277	609.793269	11.284480	-0.043180	1.535669
208.843971	608.667288	11.289485	-0.043153	1.534495
208.921748	607.560208	11.294490	-0.043169	1.533419
208.843075	606.475297	11.299494	-0.043152	1.532303
208.885893	605.364046	11.304499	-0.043161	1.531207
208.923022	604.261737	11.309504	-0.043169	1.530118
208.793968	603.175903	11.314509	-0.043142	1.528979
208.815018	602.061451	11.319514	-0.043146	1.527869
208.810590	600.968884	11.324518	-0.043145	1.526771
208.781733	599.867786	11.329523	-0.043138	1.525653
208.772266	598.759703	11.334528	-0.043136	1.524535
208.681407	597.664682	11.339533	-0.043117	1.523398
208.720090	596.561884	11.344538	-0.043125	1.522303
208.700147	595.474007	11.349542	-0.043121	1.521199
208.739313	594.349990	11.354547	-0.043129	1.520081
208.660065	593.260354	11.359552	-0.043112	1.518950
208.635549	592.153209	11.364557	-0.043106	1.517823
208.753943	591.049963	11.369562	-0.043131	1.516755
208.719710	589.970332	11.374566	-0.043124	1.515650
208.608969	588.863094	11.379571	-0.043100	1.514485
208.674978	587.746164	11.384576	-0.043114	1.513380
208.679630	586.661939	11.389581	-0.043115	1.512283
208.748126	585.538378	11.394586	-0.043129	1.511171
208.648370	584.461427	11.399590	-0.043108	1.510038
208.655317	583.353492	11.404595	-0.043109	1.508916
208.581931	582.243092	11.409600	-0.043093	1.507758
208.642552	581.158436	11.414605	-0.043106	1.506679
208.582616	580.045339	11.419610	-0.043093	1.505522
208.642527	578.952272	11.424614	-0.043106	1.504432
208.635010	577.841603	11.429619	-0.043104	1.503297
208.659820	576.747456	11.434624	-0.043109	1.502191
208.564209	575.650771	11.439629	-0.043089	1.501032
208.630955	574.538336	11.444634	-0.043102	1.499923
208.572827	573.449929	11.449638	-0.043090	1.498786
208.586670	572.331042	11.454643	-0.043093	1.497647
208.564397	571.255759	11.459648	-0.043088	1.496537
208.635541	570.125955	11.464653	-0.043103	1.495408
208.495005	569.070567	11.469658	-0.043073	1.494268
208.519771	567.925792	11.474662	-0.043078	1.493103
208.503072	566.839449	11.479667	-0.043074	1.491981
208.545066	565.740754	11.484672	-0.043083	1.490868
208.455270	564.650050	11.489677	-0.043064	1.489710
208.467245	563.521370	11.494682	-0.043066	1.488552
208.310929	562.456291	11.499686	-0.043033	1.487391
208.470813	561.314783	11.504691	-0.043066	1.486280
208.470982	560.240382	11.509696	-0.043066	1.485171
208.347633	559.128885	11.514701	-0.043040	1.483973
208.299658	558.042125	11.519706	-0.043030	1.482830
208.309571	556.912064	11.524710	-0.043032	1.481665
208.436675	555.840860	11.529715	-0.043058	1.480608
208.337274	554.731457	11.534720	-0.043037	1.479418
208.276542	553.625901	11.539725	-0.043024	1.478247
208.211066	552.536203	11.544730	-0.043010	1.477090
208.269211	551.422232	11.549734	-0.043022	1.475957
208.504991	550.293795	11.554739	-0.043072	1.474881
208.390927	549.244160	11.559744	-0.043048	1.473743
208.352374	548.123678	11.564749	-0.043039	1.472561
208.198518	547.032197	11.569754	-0.043007	1.471361
208.317964	545.919306	11.574758	-0.043032	1.470250
208.316662	544.806227	11.579763	-0.043031	1.469088
208.240324	543.728053	11.584768	-0.043015	1.467931
208.279377	542.626451	11.589773	-0.043023	1.466796
208.276840	541.520060	11.594778	-0.043022	1.465638
208.214633	540.405357	11.599782	-0.043009	1.464446
208.168523	539.331993	11.604787	-0.042999	1.463303
208.102671	538.222342	11.609792	-0.042985	1.462112
208.127872	537.107771	11.614797	-0.042990	1.460953
208.143019	536.007417	11.619802	-0.042993	1.459804
208.190603	534.907259	11.624806	-0.043003	1.458668
208.133337	533.814433	11.629811	-0.042991	1.457495
208.103947	532.712507	11.634816	-0.042984	1.456324
207.973137	531.645268	11.639821	-0.042957	1.455145
207.993446	530.505481	11.644826	-0.042961	1.453952
208.002173	529.404191	11.649830	-0.042962	1.452794
207.993552	528.307541	11.654835	-0.042960	1.451633
207.875733	527.207769	11.659840	-0.042935	1.450421
208.052779	526.085857	11.664845	-0.042973	1.449309
207.903598	525.028066	11.669850	-0.042941	1.448127
208.088798	523.889109	11.674854	-0.042980	1.446998
207.999555	522.825257	11.679859	-0.042961	1.445833
207.916668	521.709035	11.684864	-0.042943	1.444614
207.887031	520.599432	11.689869	-0.042937	1.443424
208.005526	519.487561	11.694874	-0.042961	1.442292
207.909783	518.407571	11.699878	-0.042941	1.441103
207.880976	517.303741	11.704883	-0.042935	1.439916
207.882355	516.200146	11.709888	-0.042935	1.438741
207.928092	515.090406	11.714893	-0.042944	1.437578
207.975490	513.990102	11.719898	-0.042954	1.436424
207.881056	512.923948	11.724902	-0.042934	1.435245
207.891899	511.791857	11.729907	-0.042936	1.434040
207.926569	510.690943	11.734912	-0.042943	1.432877
207.977618	509.578731	11.739917	-0.042954	1.431708
207.907652	508.504616	11.744922	-0.042939	1.430528
207.857894	507.391531	11.749926	-0.042928	1.429313
207.807809	506.304403	11.754931	-0.042918	1.428126
207.756193	505.194980	11.759936	-0.042907	1.426912
207.750871	504.091238	11.764941	-0.042905	1.425723
207.745837	502.978007	11.769946	-0.042904	1.424523
207.698339	501.902557	11.774950	-0.042894	1.423345
207.735908	500.776313	11.779955	-0.042902	1.422148
207.615654	499.701177	11.784960	-0.042876	1.420937
207.558184	498.603105	11.789965	-0.042864	1.419727
207.562788	497.472984	11.794970	-0.042865	1.418508
207.536046	496.390613	11.799974	-0.042859	1.417326
207.572330	495.274915	11.804979	-0.042866	1.416134
207.640749	494.183114	11.809984	-0.042880	1.414981
207.635533	493.090888	11.814989	-0.042879	1.413795
207.534119	491.976786	11.819994	-0.042858	1.412542
207.554816	490.892113	11.824998	-0.042862	1.411373
207.609307	489.769790	11.830003	-0.042873	1.410177
207.586699	488.680153	11.835008	-0.042868	1.408982
207.586504	487.574094	11.840013	-0.042868	1.407778
207.517649	486.477340	11.845018	-0.042853	1.406553
207.607854	485.393238	11.850022	-0.042872	1.405410
207.511003	484.285050	11.855027	-0.042851	1.404159
207.550714	483.148365	11.860032	-0.042860	1.402934
207.537018	482.074682	11.865037	-0.042857	1.401755
207.595009	480.977141	11.870042	-0.042869	1.400579
207.456177	479.885452	11.875046	-0.042839	1.399323
207.501271	478.769988	11.880051	-0.042848	1.398120
207.483096	477.675623	11.885056	-0.042844	1.396911
207.468042	476.566479	11.890061	-0.042841	1.395687
207.402051	475.481533	11.895066	-0.042827	1.394466
207.400643	474.357858	11.900070	-0.042827	1.393229
207.383988	473.274402	11.905075	-0.042823	1.392029
207.414681	472.161883	11.910080	-0.042829	1.390816
207.379980	471.062872	11.915085	-0.042822	1.389589
207.285416	469.962347	11.920090	-0.042802	1.388333
207.268909	468.869535	11.925094	-0.042798	1.387118
207.268708	467.770218	11.930099	-0.042798	1.385903
207.239408	466.671590	11.935104	-0.042791	1.384674
207.247848	465.554720	11.940109	-0.042793	1.383440
207.160807	464.466812	11.945114	-0.042774	1.382196
207.108783	463.372042	11.950118	-0.042763	1.380958
207.073676	462.260169	11.955123	-0.042756	1.379707
207.184360	461.145794	11.960128	-0.042779	1.378517
207.298370	460.043634	11.965133	-0.042803	1.377341
207.268706	458.963086	11.970138	-0.042796	1.376125
207.169036	457.868096	11.975142	-0.042775	1.374860
207.191328	456.763960	11.980147	-0.042780	1.373638
207.050579	455.665155	11.985152	-0.042750	1.372349
207.164848	454.534109	11.990157	-0.042774	1.371135
207.085464	453.464884	11.995162	-0.042757	1.369904
207.152700	452.349602	12.000166	-0.042771	1.368685
207.164973	451.248385	12.005171	-0.042773	1.367456
207.187283	450.150139	12.010176	-0.042778	1.366234
207.035690	449.068709	12.015181	-0.042745	1.364953
207.136998	447.938521	12.020186	-0.042767	1.363728
207.166398	446.845001	12.025190	-0.042773	1.362511
207.108943	445.755834	12.030195	-0.042760	1.361259
206.944657	444.660374	12.035200	-0.042726	1.359951
206.975709	443.535721	12.040205	-0.042732	1.358696
207.067830	442.437257	12.045210	-0.042751	1.357498
206.903912	441.369174	12.050214	-0.042716	1.356217
206.862442	440.269417	12.055219	-0.042708	1.354954
206.852653	439.132590	12.060224	-0.042705	1.353663
206.829824	438.032197	12.065229	-0.042700	1.352406
206.904390	436.937792	12.070234	-0.042716	1.351198
206.933006	435.838858	12.075238	-0.042722	1.349964
206.927081	434.736550	12.080243	-0.042720	1.348708
206.896572	433.641496	12.085248	-0.042714	1.347449
206.872996	432.546086	12.090253	-0.042708	1.346192
206.894847	431.443471	12.095258	-0.042713	1.344945
206.838336	430.336426	12.100262	-0.042701	1.343657
206.761824	429.245406	12.105267	-0.042684	1.342376
206.824150	428.124168	12.110272	-0.042697	1.341124
206.718492	427.036379	12.115277	-0.042675	1.339831
206.719341	425.929521	12.120282	-0.042675	1.338564
206.733183	424.836502	12.125286	-0.042678	1.337318
206.788002	423.734421	12.130291	-0.042689	1.336079
206.642921	422.656011	12.135296	-0.042658	1.334775
206.594112	421.543940	12.140301	-0.042648	1.333474
206.687111	420.399363	12.145306	-0.042667	1.332200
206.643396	419.342796	12.150310	-0.042658	1.330964
206.773553	418.206468	12.155315	-0.042685	1.329714
206.702442	417.141123	12.160320	-0.042670	1.328452
206.709454	416.013916	12.165325	-0.042671	1.327154
206.645332	414.938515	12.170330	-0.042658	1.325881
206.729461	413.831819	12.175334	-0.042675	1.324640
206.639637	412.745720	12.180339	-0.042656	1.323340
206.649145	411.602198	12.185344	-0.042658	1.322019
206.708587	410.514654	12.190349	-0.042670	1.320785
206.565939	409.437387	12.195354	-0.042640	1.319468
206.581866	408.322420	12.200358	-0.042643	1.318179
206.549875	407.225509	12.205363	-0.042636	1.316887
206.603678	406.118694	12.210368	-0.042647	1.315623
206.542053	405.025859	12.215373	-0.042634	1.314320
206.485496	403.918611	12.220378	-0.042622	1.313002
206.469938	402.803484	12.225382	-0.042619	1.311692
206.452811	401.728990	12.230387	-0.042615	1.310427
206.514425	400.600790	12.235392	-0.042628	1.309135
206.462771	399.530869	12.240397	-0.042616	1.307857
206.412541	398.425599	12.245402	-0.042606	1.306537
206.505265	397.301608	12.250406	-0.042625	1.305261
206.430652	396.213685	12.255411	-0.042609	1.303948
206.359412	395.113942	12.260416	-0.042594	1.302620
206.323362	394.019119	12.265421	-0.042586	1.301314
206.365917	392.916258	12.270426	-0.042595	1.300034
206.252486	391.809324	12.275430	-0.042571	1.298674
206.256697	390.726489	12.280435	-0.042572	1.297397
206.369857	389.592693	12.285440	-0.042595	1.296110
206.198502	388.518710	12.290445	-0.042559	1.294758
206.289408	387.404771	12.295450	-0.042578	1.293481
206.288444	386.303004	12.300454	-0.042578	1.292174
206.207452	385.217697	12.305459	-0.042560	1.290847
206.281782	384.078381	12.310464	-0.042576	1.289529
206.196785	383.036116	12.315469	-0.042558	1.288249
206.204671	381.891582	12.320474	-0.042559	1.286889
206.169242	380.826550	12.325478	-0.042552	1.285603
206.137744	379.699382	12.330483	-0.042545	1.284243
206.107674	378.605894	12.335488	-0.042538	1.282922
206.134447	377.495523	12.340493	-0.042544	1.281607
206.050725	376.404963	12.345498	-0.042526	1.280262
205.953002	375.310639	12.350502	-0.042505	1.278904
206.063081	374.197857	12.355507	-0.042528	1.277622
206.162474	373.083073	12.360512	-0.042549	1.276331
206.052822	372.001482	12.365517	-0.042526	1.274979
206.107873	370.899322	12.370522	-0.042537	1.273679
206.115453	369.784081	12.375526	-0.042538	1.272339
206.106396	368.708366	12.380531	-0.042536	1.271038
205.984761	367.598572	12.385536	-0.042510	1.269640
206.122477	366.484916	12.390541	-0.042539	1.268361
205.982270	365.400153	12.395546	-0.042510	1.266981
206.080214	364.297013	12.400550	-0.042530	1.265693
205.976598	363.207681	12.405555	-0.042508	1.264322
205.970791	362.078265	12.410560	-0.042507	1.262949
205.985313	360.977909	12.415565	-0.042509	1.261619
205.865145	359.909692	12.420570	-0.042484	1.260262
206.032306	358.771739	12.425574	-0.042519	1.258958
205.864876	357.716218	12.430579	-0.042484	1.257591
205.817204	356.579088	12.435584	-0.042473	1.256180
205.869926	355.488030	12.440589	-0.042484	1.254873
205.850356	354.397728	12.445594	-0.042480	1.253531
205.731937	353.294757	12.450598	-0.042455	1.252123
205.774558	352.171024	12.455603	-0.042464	1.250767
205.797052	351.074415	12.460608	-0.042468	1.249433
205.762719	350.002923	12.465613	-0.042461	1.248101
205.687873	348.891823	12.470618	-0.042445	1.246698
205.764655	347.782343	12.475622	-0.042461	1.245371
205.705100	346.682058	12.480627	-0.042448	1.243986
205.641738	345.587398	12.485632	-0.042435	1.242605
205.589848	344.473028	12.490637	-0.042423	1.241203
205.699141	343.382038	12.495642	-0.042446	1.239909
205.801914	342.271987	12.500646	-0.042468	1.238587
205.735511	341.181146	12.505651	-0.042454	1.237203
205.677059	340.091958	12.510656	-0.042441	1.235823
205.636880	338.975332	12.515661	-0.042432	1.234417
205.739465	337.867636	12.520666	-0.042454	1.233091
205.600426	336.774127	12.525670	-0.042424	1.231661
205.574953	335.698764	12.530675	-0.042419	1.230309
205.548286	334.562520	12.535680	-0.042413	1.228879
205.449719	333.478793	12.540685	-0.042392	1.227477
205.509856	332.367200	12.545690	-0.042405	1.226118
205.497906	331.285139	12.550694	-0.042402	1.224758
205.461894	330.174761	12.555699	-0.042394	1.223349
205.476548	329.057126	12.560704	-0.042397	1.221955
205.436739	327.990611	12.565709	-0.042388	1.220596
205.402792	326.853694	12.570714	-0.042381	1.219150
205.419333	325.775322	12.575718	-0.042384	1.217801
205.401961	324.666160	12.580723	-0.042381	1.216395
205.369326	323.588344	12.585728	-0.042374	1.215019
205.240044	322.474291	12.590733	-0.042346	1.213547
205.381002	321.364466	12.595738	-0.042376	1.212215
205.382399	320.266646	12.600742	-0.042376	1.210827
205.290123	319.149973	12.605747	-0.042356	1.209365
205.372903	318.048103	12.610752	-0.042373	1.208009
205.432221	316.969123	12.615757	-0.042386	1.206669
205.412052	315.875467	12.620762	-0.042381	1.205268
205.313812	314.763676	12.625766	-0.042360	1.203803
205.308043	313.667355	12.630771	-0.042359	1.202403
205.302102	312.556854	12.635776	-0.042357	1.200983
205.372841	311.463060	12.640781	-0.042372	1.199622
205.233226	310.366023	12.645786	-0.042343	1.198147
205.208429	309.262830	12.650790	-0.042337	1.196722
205.153478	308.173005	12.655795	-0.042325	1.195296
205.188931	307.053022	12.660800	-0.042333	1.193877
205.162499	305.961984	12.665805	-0.042327	1.192462
205.202461	304.855969	12.670810	-0.042335	1.191059
205.193218	303.755547	12.675814	-0.042333	1.189637
205.164264	302.658551	12.680819	-0.042327	1.188207
205.156676	301.549238	12.685824	-0.042325	1.186771
205.203939	300.444647	12.690829	-0.042335	1.185368
205.001440	299.403245	12.695834	-0.042292	1.183914
204.999308	298.236061	12.700838	-0.042291	1.182401
205.020213	297.152668	12.705843	-0.042296	1.181006
205.003314	296.057567	12.710848	-0.042292	1.179574
205.019217	294.943072	12.715853	-0.042295	1.178133
204.967113	293.858866	12.720858	-0.042284	1.176694
205.042290	292.730446	12.725862	-0.042299	1.175262
204.940042	291.690114	12.730867	-0.042278	1.173850
204.988274	290.541037	12.735872	-0.042288	1.172374
204.981939	289.430681	12.740877	-0.042286	1.170917
204.900791	288.363259	12.745882	-0.042269	1.169476
204.923512	287.247133	12.750886	-0.042274	1.168024
204.952626	286.137651	12.755891	-0.042279	1.166582
204.941137	285.058770	12.760896	-0.042277	1.165157
204.842998	283.938862	12.765901	-0.042256	1.163630
204.966089	282.845015	12.770906	-0.042282	1.162253
204.849024	281.757293	12.775910	-0.042257	1.160755
204.774148	280.653315	12.780915	-0.042241	1.159256
204.743463	279.548361	12.785920	-0.042234	1.157777
204.768160	278.426510	12.790925	-0.042239	1.156304
204.752795	277.352339	12.795930	-0.042236	1.154870
204.757664	276.235677	12.800934	-0.042237	1.153390
204.858706	275.141577	12.805939	-0.042258	1.151988
204.912033	274.023258	12.810944	-0.042269	1.150527
204.892593	272.942788	12.815949	-0.042265	1.149076
204.832501	271.847800	12.820954	-0.042252	1.147582
204.734422	270.737117	12.825958	-0.042231	1.146044
204.786912	269.646293	12.830963	-0.042242	1.144612
204.767618	268.533955	12.835968	-0.042238	1.143111
204.619715	267.448103	12.840973	-0.042206	1.141573
204.628864	266.341867	12.845978	-0.042208	1.140091
204.640307	265.235677	12.850982	-0.042210	1.138609
204.558725	264.137388	12.855987	-0.042193	1.137085
204.659761	263.025854	12.860992	-0.042214	1.135640
204.512348	261.961460	12.865997	-0.042183	1.134121
204.586988	260.812546	12.871002	-0.042198	1.132608
204.583245	259.730700	12.876006	-0.042197	1.131140
204.663554	258.643278	12.881011	-0.042214	1.129709
204.567819	257.530891	12.886016	-0.042194	1.128146
204.629913	256.409664	12.891021	-0.042207	1.126655
204.600850	255.354820	12.896026	-0.042200	1.125202
204.657791	254.215646	12.901030	-0.042212	1.123680
204.515559	253.139162	12.906035	-0.042182	1.122132
204.445880	252.030983	12.911040	-0.042167	1.120579
204.367186	250.943960	12.916045	-0.042150	1.119047
204.337157	249.832387	12.921050	-0.042144	1.117506
204.362406	248.715379	12.926054	-0.042149	1.115986
204.335012	247.636454	12.931059	-0.042143	1.114488
204.316309	246.536686	12.936064	-0.042139	1.112963
204.347580	245.401783	12.941069	-0.042145	1.111416
204.311600	244.330221	12.946074	-0.042137	1.109917
204.236391	243.235088	12.951078	-0.042121	1.108361
204.322718	242.109405	12.956083	-0.042139	1.106851
204.290097	241.017103	12.961088	-0.042132	1.105318
204.265677	239.931118	12.966093	-0.042127	1.103797
204.089238	238.839858	12.971098	-0.042090	1.102181
204.301994	237.688516	12.976102	-0.042134	1.100698
204.165505	236.643618	12.981107	-0.042105	1.099164
204.161720	235.509392	12.986112	-0.042104	1.097579
204.201203	234.418274	12.991117	-0.042113	1.096076
204.055582	233.346651	12.996122	-0.042082	1.094493
203.989233	232.223068	13.001126	-0.042068	1.092881
204.051835	231.103794	13.006131	-0.042081	1.091345
204.192924	230.003611	13.011136	-0.042110	1.089878
204.111695	228.923954	13.016141	-0.042093	1.088312
204.042454	227.819108	13.021146	-0.042078	1.086715
204.097265	226.700970	13.026150	-0.042089	1.085167
204.123646	225.637061	13.031155	-0.042095	1.083678
204.127997	224.503616	13.036160	-0.042095	1.082075
203.937349	223.433898	13.041165	-0.042055	1.080449
203.957180	222.308900	13.046170	-0.042059	1.078863
203.973991	221.214999	13.051174	-0.042063	1.077317
204.064637	220.106994	13.056179	-0.042081	1.075791
203.905202	219.030657	13.061184	-0.042048	1.074164
203.797156	217.918014	13.066189	-0.042025	1.072512
203.769442	216.810058	13.071194	-0.042019	1.070911
203.827849	215.713705	13.076198	-0.042031	1.069374
203.790037	214.618429	13.081203	-0.042023	1.067780
203.772088	213.506646	13.086208	-0.042019	1.066172
203.794855	212.415499	13.091213	-0.042023	1.064615
203.734914	211.307106	13.096218	-0.042011	1.062982
203.667609	210.213044	13.101222	-0.041996	1.061364
203.578128	209.132452	13.106227	-0.041977	1.059749
203.681073	207.987719	13.111232	-0.041999	1.058152
203.683359	206.904865	13.116237	-0.041999	1.056583
203.518308	205.833895	13.121242	-0.041964	1.054930
203.546207	204.709953	13.126246	-0.041970	1.053312
203.596289	203.590589	13.131251	-0.041980	1.051711
203.607392	202.502321	13.136256	-0.041982	1.050129
203.501722	201.426346	13.141261	-0.041960	1.048495
203.533856	200.285637	13.146266	-0.041966	1.046844
203.568655	199.220056	13.151270	-0.041974	1.045303
203.317072	198.131164	13.156275	-0.041920	1.043555
203.318898	196.995345	13.161280	-0.041921	1.041886
203.455730	195.885581	13.166285	-0.041949	1.040333
203.383709	194.802932	13.171290	-0.041934	1.038693
203.380178	193.718064	13.176294	-0.041933	1.037088
203.281451	192.606732	13.181299	-0.041912	1.035384
203.217778	191.522486	13.186304	-0.041898	1.033739
203.230899	190.407393	13.191309	-0.041901	1.032092
203.135256	189.320044	13.196314	-0.041881	1.030418
203.148275	188.190917	13.201318	-0.041883	1.028744
203.246950	187.075620	13.206323	-0.041904	1.027140
203.168909	186.008334	13.211328	-0.041887	1.025498
203.227303	184.901092	13.216333	-0.041899	1.023876
203.082755	183.821845	13.221338	-0.041869	1.022171
203.061308	182.706307	13.226342	-0.041864	1.020483
203.019426	181.600425	13.231347	-0.041855	1.018795
203.061120	180.476633	13.236352	-0.041864	1.017127
203.007746	179.410883	13.241357	-0.041852	1.015487
202.922271	178.310080	13.246362	-0.041834	1.013771
202.940433	177.210284	13.251366	-0.041838	1.012117
202.913529	176.102935	13.256371	-0.041832	1.010422
202.821220	174.996764	13.261376	-0.041812	1.008685
202.861618	173.894483	13.266381	-0.041820	1.007033
202.787611	172.802864	13.271386	-0.041805	1.005324
202.791070	171.706584	13.276390	-0.041805	1.003652
202.655374	170.607700	13.281395	-0.041776	1.001888
202.733476	169.475543	13.286400	-0.041793	1.000202
202.644041	168.418986	13.291405	-0.041774	0.998525
202.579746	167.305741	13.296410	-0.041760	0.996774
202.573295	166.195700	13.301414	-0.041758	0.995061
202.551649	165.094279	13.306419	-0.041754	0.993349
202.539832	163.993922	13.311424	-0.041751	0.991641
202.548815	162.891076	13.316429	-0.041753	0.989940
202.553717	161.788399	13.321434	-0.041754	0.988234
202.502288	160.701593	13.326438	-0.041743	0.986514
202.435460	159.594134	13.331443	-0.041728	0.984749
202.361473	158.506269	13.336448	-0.041713	0.983007
202.466959	157.371677	13.341453	-0.041735	0.981302
202.365101	156.310137	13.346458	-0.041713	0.979577
202.390130	155.181530	13.351462	-0.041718	0.977825
202.339465	154.094875	13.356467	-0.041707	0.976087
202.274049	153.014879	13.361472	-0.041693	0.974347
202.219693	151.909212	13.366477	-0.041682	0.972571
202.192855	150.782006	13.371482	-0.041676	0.970775
202.238318	149.693060	13.376486	-0.041685	0.969082
202.106095	148.600088	13.381491	-0.041657	0.967266
202.132988	147.484501	13.386496	-0.041663	0.965514
202.037459	146.400271	13.391501	-0.041642	0.963729
201.987867	145.306898	13.396506	-0.041632	0.961955
202.096779	144.177874	13.401510	-0.041654	0.960224
202.029235	143.092026	13.406515	-0.041640	0.958445
201.982129	141.993974	13.411520	-0.041630	0.956656
201.963569	140.889986	13.416525	-0.041626	0.954873
201.859159	139.806531	13.421530	-0.041604	0.953063
201.883208	138.683350	13.426534	-0.041609	0.951270
201.838749	137.605941	13.431539	-0.041599	0.949502
201.923074	136.464122	13.436544	-0.041617	0.947712
201.736588	135.405851	13.441549	-0.041577	0.945876
201.664731	134.320215	13.446554	-0.041562	0.944067
201.577791	133.200298	13.451558	-0.041543	0.942188
201.557407	132.088044	13.456563	-0.041539	0.940363
201.472856	130.991573	13.461568	-0.041521	0.938517
201.330086	129.895916	13.466573	-0.041491	0.936631
201.385395	128.790172	13.471578	-0.041502	0.934855
201.406847	127.691764	13.476582	-0.041507	0.933066
201.459405	126.577512	13.481587	-0.041517	0.931268
201.303958	125.526255	13.486592	-0.041484	0.929432
201.340862	124.367616	13.491597	-0.041492	0.927543
201.371918	123.288306	13.496602	-0.041498	0.925778
201.341364	122.192248	13.501606	-0.041492	0.923940
201.403090	121.092010	13.506611	-0.041505	0.922154
201.363949	119.980643	13.511616	-0.041496	0.920277
201.335004	118.899361	13.516621	-0.041490	0.918454
201.251157	117.793226	13.521626	-0.041472	0.916548
201.328421	116.689512	13.526630	-0.041488	0.914753
201.259707	115.590571	13.531635	-0.041473	0.912862
201.217309	114.515506	13.536640	-0.041464	0.911025
201.089105	113.388599	13.541645	-0.041437	0.909038
201.024206	112.301539	13.546650	-0.041423	0.907158
201.011117	111.173908	13.551654	-0.041420	0.905241
201.021784	110.104545	13.556659	-0.041423	0.903435
200.871197	109.012272	13.561664	-0.041391	0.901475
200.833478	107.892645	13.566669	-0.041383	0.899543
200.866928	106.782774	13.571674	-0.041389	0.897672
200.924245	105.661932	13.576678	-0.041401	0.895795
200.868698	104.615079	13.581683	-0.041389	0.893962
200.872558	103.486624	13.586688	-0.041390	0.892027
200.897687	102.398132	13.591693	-0.041395	0.890172
200.629235	101.322685	13.596698	-0.041338	0.888129
200.641982	100.187161	13.601702	-0.041341	0.886175
200.667857	99.094469	13.606707	-0.041346	0.884300
200.600843	97.987346	13.611712	-0.041332	0.882331
200.596186	96.892764	13.616717	-0.041331	0.880423
200.526553	95.809306	13.621722	-0.041316	0.878485
200.526254	94.689633	13.626726	-0.041316	0.876528
200.403580	93.600041	13.631731	-0.041290	0.874532
200.256409	92.524389	13.636736	-0.041258	0.872539
200.362752	91.366027	13.641741	-0.041281	0.870577
200.191607	90.316105	13.646746	-0.041244	0.868603
200.194557	89.193925	13.651750	-0.041245	0.866621
200.249226	88.078663	13.656755	-0.041256	0.864685
200.146768	87.014598	13.661760	-0.041234	0.862722
200.094132	85.880353	13.666765	-0.041223	0.860665
199.955444	84.831941	13.671770	-0.041194	0.858695
199.959781	83.690045	13.676774	-0.041195	0.856656
200.018616	82.582321	13.681779	-0.041207	0.854714
199.802543	81.527399	13.686784	-0.041161	0.852661
199.841803	80.377889	13.691789	-0.041169	0.850620
199.733873	79.314089	13.696794	-0.041146	0.848621
199.735309	78.199136	13.701798	-0.041146	0.846604
199.682322	77.092732	13.706803	-0.041135	0.844559
199.667021	75.999965	13.711808	-0.041132	0.842561
199.694447	74.885611	13.716813	-0.041137	0.840551
199.654205	73.809753	13.721818	-0.041129	0.838556
199.631575	72.695607	13.726822	-0.041124	0.836499
199.543568	71.599366	13.731827	-0.041105	0.834421
199.441917	70.516160	13.736832	-0.041083	0.832352
199.440236	69.387277	13.741837	-0.041083	0.830268
199.412775	68.305947	13.746842	-0.041077	0.828248
199.393759	67.194157	13.751846	-0.041073	0.826172
199.355662	66.105653	13.756851	-0.041064	0.824120
199.226886	65.020846	13.761856	-0.041037	0.822001
199.235556	63.880702	13.766861	-0.041039	0.819878
199.128043	62.817994	13.771866	-0.041016	0.817806
199.113920	61.704901	13.776870	-0.041013	0.815705
199.089721	60.606657	13.781875	-0.041008	0.813619
198.844612	59.535826	13.786880	-0.040956	0.811410
198.910360	58.399747	13.791885	-0.040969	0.809311
198.850674	57.291556	13.796890	-0.040957	0.807162
198.860864	56.187120	13.801894	-0.040959	0.805069
198.845658	55.116281	13.806899	-0.040955	0.803015
198.731405	54.020691	13.811904	-0.040931	0.800830
198.629522	52.924721	13.816909	-0.040909	0.798649
198.617318	51.805282	13.821914	-0.040907	0.796487
198.666924	50.699678	13.826918	-0.040917	0.794395
198.559883	49.627312	13.831923	-0.040894	0.792237
198.495566	48.501006	13.836928	-0.040881	0.790003
198.405661	47.401499	13.841933	-0.040861	0.787795
198.409601	46.323175	13.846938	-0.040862	0.785696
198.406092	45.215708	13.851942	-0.040861	0.783529
198.280887	44.117702	13.856947	-0.040835	0.781276
198.236291	43.025705	13.861952	-0.040825	0.779094
198.182571	41.896729	13.866957	-0.040814	0.776825
198.177676	40.820347	13.871962	-0.040812	0.774694
198.143305	39.715508	13.876966	-0.040805	0.772476
198.107719	38.620018	13.881971	-0.040797	0.770269
198.082211	37.507999	13.886976	-0.040792	0.768031
197.997538	36.418043	13.891981	-0.040774	0.765782
197.848457	35.351175	13.896986	-0.040742	0.763521
197.789006	34.228032	13.901990	-0.040729	0.761213
197.802969	33.105449	13.906995	-0.040732	0.758959
197.773842	32.019779	13.912000	-0.040726	0.756738
197.693299	30.926477	13.917005	-0.040709	0.754452
197.526641	29.850981	13.922010	-0.040673	0.752124
197.576016	28.719215	13.927014	-0.040684	0.749854
197.495714	27.616113	13.932019	-0.040667	0.747528
197.518125	26.508640	13.937024	-0.040671	0.745271
197.450722	25.433093	13.942029	-0.040657	0.742998
197.417717	24.330180	13.947034	-0.040650	0.740690
197.308608	23.238851	13.952038	-0.040626	0.738334
197.335755	22.112746	13.957043	-0.040632	0.736015
197.372291	21.012788	13.962048	-0.040640	0.733750
197.267414	19.944879	13.967053	-0.040617	0.731425
197.164347	18.850339	13.972058	-0.040595	0.729038
197.021107	17.748747	13.977062	-0.040565	0.726594
196.973543	16.645190	13.982067	-0.040555	0.724220
196.832735	15.558452	13.987072	-0.040525	0.721792
196.755846	14.425807	13.992077	-0.040509	0.719315
196.708983	13.340137	13.997082	-0.040499	0.716955
196.692062	12.243213	14.002086	-0.040495	0.714590
196.639235	11.151813	14.007091	-0.040484	0.712198
196.606221	10.033441	14.012096	-0.040476	0.709756
196.445476	8.957110	14.017101	-0.040442	0.707284
196.416489	7.846643	14.022106	-0.040436	0.704847
196.410309	6.744101	14.027110	-0.040435	0.702438
196.207184	5.676814	14.032115	-0.040392	0.699922
196.064871	4.563826	14.037120	-0.040362	0.697351
196.203531	3.408595	14.042125	-0.040391	0.694931
196.028377	2.479594	14.047130	-0.040354	0.692719
195.951231	2.095792	14.052134	-0.040337	0.691799
195.939285	2.015076	14.057139	-0.040335	0.691610
